주파수 (Hz)	레벨 (dB)
23.437500	-88.633171
46.875000	-73.945595
70.312500	-60.742443
93.750000	-54.284401
117.187500	-52.496017
140.625000	-51.893845
164.062500	-51.778744
187.500000	-50.126789
210.937500	-47.378052
234.375000	-45.656681
257.812500	-49.584877
281.250000	-51.565277
304.687500	-50.957527
328.125000	-47.575207
351.562500	-43.599613
375.000000	-46.355774
398.437500	-47.232376
421.875000	-47.829258
445.312500	-49.579021
468.750000	-47.431835
492.187500	-52.517155
515.625000	-51.415344
539.062500	-50.120358
562.500000	-50.055725
585.937500	-49.154232
609.375000	-49.832603
632.812500	-50.637218
656.250000	-55.063599
679.687500	-53.961506
703.125000	-51.031185
726.562500	-54.663067
750.000000	-57.168041
773.437500	-55.701195
796.875000	-55.377552
820.312500	-56.246868
843.750000	-56.817451
867.187500	-62.574059
890.625000	-62.872887
914.062500	-63.280659
937.500000	-59.365841
960.937500	-62.531586
984.375000	-60.274399
1007.812500	-63.762115
1031.250000	-61.817425
1054.687500	-58.279312
1078.125000	-62.942055
1101.562500	-61.378891
1125.000000	-63.568851
1148.437500	-67.902954
1171.875000	-63.296215
1195.312500	-64.741058
1218.750000	-62.117619
1242.187500	-59.857296
1265.625000	-63.072430
1289.062500	-71.264328
1312.500000	-68.256187
1335.937500	-68.378395
1359.375000	-68.979515
1382.812500	-62.848213
1406.250000	-60.713177
1429.687500	-65.000336
1453.125000	-71.534615
1476.562500	-68.853943
1500.000000	-69.427483
1523.437500	-74.995125
1546.875000	-68.858620
1570.312500	-61.796402
1593.750000	-62.719402
1617.187500	-70.573738
1640.625000	-68.495461
1664.062500	-65.550812
1687.500000	-65.384254
1710.937500	-73.294769
1734.375000	-74.144463
1757.812500	-66.947372
1781.250000	-66.831490
1804.687500	-73.712242
1828.125000	-74.537453
1851.562500	-68.022537
1875.000000	-62.456726
1898.437500	-64.802895
1921.875000	-72.585205
1945.312500	-73.334076
1968.750000	-69.890457
1992.187500	-68.754898
2015.625000	-72.483208
2039.062500	-79.052238
2062.500000	-76.343246
2085.937500	-69.304680
2109.375000	-65.508995
2132.812500	-67.720306
2156.250000	-77.284508
2179.687500	-78.517296
2203.125000	-74.522346
2226.562500	-72.114342
2250.000000	-73.464111
2273.437500	-79.946449
2296.875000	-79.923309
2320.312500	-76.132553
2343.750000	-72.397560
2367.187500	-69.854218
2390.625000	-71.022057
2414.062500	-78.569283
2437.500000	-82.737152
2460.937500	-78.401077
2484.375000	-74.196548
2507.812500	-70.096107
2531.250000	-68.983185
2554.687500	-76.853424
2578.125000	-81.675598
2601.562500	-81.455002
2625.000000	-80.887436
2648.437500	-81.500725
2671.875000	-79.209305
2695.312500	-80.382866
2718.750000	-81.752602
2742.187500	-76.264702
2765.625000	-75.105988
2789.062500	-72.764252
2812.500000	-73.616890
2835.937500	-74.790718
2859.375000	-78.577637
2882.812500	-83.506958
2906.250000	-83.529999
2929.687500	-82.105545
2953.125000	-76.424271
2976.562500	-76.578438
3000.000000	-79.792847
3023.437500	-83.135239
3046.875000	-86.007385
3070.312500	-85.014526
3093.750000	-78.483612
3117.187500	-81.087463
3140.625000	-82.723854
3164.062500	-77.746582
3187.500000	-73.006706
3210.937500	-72.253174
3234.375000	-79.679131
3257.812500	-91.479454
3281.250000	-86.285149
3304.687500	-86.951950
3328.125000	-84.297585
3351.562500	-84.522049
3375.000000	-86.276939
3398.437500	-82.493378
3421.875000	-83.447800
3445.312500	-89.847015
3468.750000	-91.407928
3492.187500	-87.274223
3515.625000	-88.154373
3539.062500	-86.706978
3562.500000	-82.555794
3585.937500	-82.826675
3609.375000	-81.019485
3632.812500	-81.870689
3656.250000	-90.098129
3679.687500	-91.791161
3703.125000	-90.047379
3726.562500	-93.113907
3750.000000	-90.771179
3773.437500	-89.219116
3796.875000	-89.140846
3820.312500	-83.591187
3843.750000	-81.720139
3867.187500	-83.948685
3890.625000	-93.921532
3914.062500	-97.454735
3937.500000	-93.158981
3960.937500	-93.909248
3984.375000	-95.266556
4007.812500	-93.968643
4031.250000	-94.265396
4054.687500	-91.996590
4078.125000	-92.157600
4101.562500	-94.057724
4125.000000	-97.746651
4148.437500	-99.207893
4171.875000	-92.444435
4195.312500	-88.513924
4218.750000	-93.344070
4242.187500	-92.682953
4265.625000	-92.423203
4289.062500	-93.946709
4312.500000	-89.835182
4335.937500	-85.141685
4359.375000	-88.905289
4382.812500	-97.291519
4406.250000	-95.989922
4429.687500	-97.429527
4453.125000	-100.178993
4476.562500	-95.428062
4500.000000	-92.985687
4523.437500	-94.718491
4546.875000	-95.113106
4570.312500	-96.125053
4593.750000	-94.055946
4617.187500	-95.937584
4640.625000	-99.200905
4664.062500	-99.820862
4687.500000	-97.257355
4710.937500	-99.136459
4734.375000	-93.748871
4757.812500	-93.097977
4781.250000	-97.726021
4804.687500	-97.844292
4828.125000	-92.024330
4851.562500	-87.803841
4875.000000	-89.473984
4898.437500	-92.591125
4921.875000	-90.574074
4945.312500	-91.946121
4968.750000	-101.380905
4992.187500	-102.825836
5015.625000	-100.736015
5039.062500	-96.135880
5062.500000	-91.794533
5085.937500	-94.426163
5109.375000	-100.781021
5132.812500	-95.227264
5156.250000	-91.512253
5179.687500	-92.003517
5203.125000	-98.534149
5226.562500	-101.014153
5250.000000	-101.205910
5273.437500	-104.465042
5296.875000	-107.781006
5320.312500	-105.730637
5343.750000	-103.148277
5367.187500	-99.410416
5390.625000	-101.342285
5414.062500	-104.700134
5437.500000	-104.917969
5460.937500	-104.282623
5484.375000	-101.576042
5507.812500	-103.937752
5531.250000	-103.487053
5554.687500	-100.598045
5578.125000	-103.964981
5601.562500	-103.057480
5625.000000	-102.827759
5648.437500	-108.523911
5671.875000	-107.344971
5695.312500	-101.224304
5718.750000	-97.929787
5742.187500	-99.904175
5765.625000	-104.771019
5789.062500	-107.409935
5812.500000	-101.758759
5835.937500	-100.033829
5859.375000	-103.232285
5882.812500	-105.007843
5906.250000	-102.061005
5929.687500	-103.077934
5953.125000	-106.376801
5976.562500	-105.864166
6000.000000	-105.950668
6023.437500	-110.200935
6046.875000	-111.210258
6070.312500	-106.882111
6093.750000	-104.393082
6117.187500	-107.688927
6140.625000	-107.484131
6164.062500	-96.911209
6187.500000	-94.965294
6210.937500	-101.569778
6234.375000	-110.642387
6257.812500	-111.619926
6281.250000	-104.854088
6304.687500	-101.588043
6328.125000	-106.266724
6351.562500	-106.525742
6375.000000	-103.478355
6398.437500	-106.225342
6421.875000	-110.551384
6445.312500	-108.363449
6468.750000	-105.031784
6492.187500	-107.076134
6515.625000	-109.805702
6539.062500	-112.264229
6562.500000	-109.356476
6585.937500	-102.605507
6609.375000	-103.137489
6632.812500	-111.165710
6656.250000	-112.687218
6679.687500	-108.731384
6703.125000	-108.899353
6726.562500	-109.303452
6750.000000	-110.936424
6773.437500	-107.177513
6796.875000	-107.850021
6820.312500	-111.695305
6843.750000	-112.464272
6867.187500	-114.571411
6890.625000	-112.314819
6914.062500	-112.456909
6937.500000	-112.250267
6960.937500	-103.226700
6984.375000	-102.216728
7007.812500	-106.697090
7031.250000	-101.959824
7054.687500	-105.409348
7078.125000	-114.657211
7101.562500	-115.621750
7125.000000	-113.303772
7148.437500	-113.295624
7171.875000	-113.865562
7195.312500	-113.856773
7218.750000	-114.690842
7242.187500	-116.388283
7265.625000	-112.608818
7289.062500	-114.241119
7312.500000	-118.752441
7335.937500	-116.378433
7359.375000	-117.224701
7382.812500	-112.407593
7406.250000	-111.420280
7429.687500	-114.689964
7453.125000	-114.323402
7476.562500	-111.024208
7500.000000	-109.309311
7523.437500	-110.380569
7546.875000	-115.554665
7570.312500	-117.546829
7593.750000	-114.247299
7617.187500	-113.435547
7640.625000	-118.485031
7664.062500	-119.885452
7687.500000	-119.216461
7710.937500	-116.554718
7734.375000	-114.772141
7757.812500	-113.894539
7781.250000	-113.210495
7804.687500	-114.467339
7828.125000	-115.784752
7851.562500	-114.055931
7875.000000	-117.228500
7898.437500	-118.689507
7921.875000	-116.048828
7945.312500	-116.035187
7968.750000	-110.555367
7992.187500	-108.911545
8015.625000	-110.490875
8039.062500	-115.838196
8062.500000	-117.948746
8085.937500	-116.521980
8109.375000	-116.950356
8132.812500	-118.671379
8156.250000	-117.871918
8179.687500	-117.534340
8203.125000	-116.731316
8226.562500	-118.193031
8250.000000	-118.098732
8273.437500	-117.895638
8296.875000	-115.568672
8320.312500	-112.900810
8343.750000	-115.452591
8367.187500	-119.065788
8390.625000	-119.119247
8414.062500	-115.984848
8437.500000	-114.385323
8460.937500	-114.402817
8484.375000	-117.401115
8507.812500	-118.779747
8531.250000	-116.958176
8554.687500	-114.819252
8578.125000	-116.612289
8601.562500	-118.418388
8625.000000	-119.889374
8648.437500	-120.698761
8671.875000	-119.225441
8695.312500	-119.101105
8718.750000	-118.677650
8742.187500	-118.222588
8765.625000	-119.285637
8789.062500	-119.921173
8812.500000	-118.277855
8835.937500	-119.666794
8859.375000	-120.598602
8882.812500	-118.042908
8906.250000	-117.231941
8929.687500	-120.208626
8953.125000	-121.061790
8976.562500	-119.462059
9000.000000	-116.997704
9023.437500	-118.903336
9046.875000	-121.180550
9070.312500	-120.214409
9093.750000	-117.494995
9117.187500	-116.701302
9140.625000	-120.350288
9164.062500	-122.662788
9187.500000	-122.609665
9210.937500	-122.678169
9234.375000	-121.965752
9257.812500	-121.050217
9281.250000	-120.280014
9304.687500	-119.912704
9328.125000	-120.624718
9351.562500	-119.330910
9375.000000	-118.436241
9398.437500	-119.313942
9421.875000	-117.177803
9445.312500	-117.931992
9468.750000	-121.326653
9492.187500	-119.979324
9515.625000	-119.860527
9539.062500	-122.153267
9562.500000	-121.857300
9585.937500	-122.024094
9609.375000	-121.262367
9632.812500	-120.152840
9656.250000	-120.432396
9679.687500	-120.798294
9703.125000	-120.959290
9726.562500	-122.569420
9750.000000	-123.868126
9773.437500	-123.678375
9796.875000	-123.385216
9820.312500	-123.078033
9843.750000	-121.199409
9867.187500	-121.365860
9890.625000	-123.217033
9914.062500	-123.209686
9937.500000	-122.944878
9960.937500	-122.076393
9984.375000	-121.727554
10007.812500	-122.717941
10031.250000	-122.053490
10054.687500	-120.760178
10078.125000	-120.491158
10101.562500	-121.159126
10125.000000	-121.980225
10148.437500	-121.634323
10171.875000	-122.412323
10195.312500	-121.915512
10218.750000	-121.510818
10242.187500	-119.968040
10265.625000	-117.641220
10289.062500	-118.831596
10312.500000	-120.634926
10335.937500	-121.523155
10359.375000	-122.548065
10382.812500	-122.645332
10406.250000	-122.412041
10429.687500	-122.351486
10453.125000	-122.243202
10476.562500	-124.009804
10500.000000	-124.331573
10523.437500	-124.187569
10546.875000	-123.351608
10570.312500	-122.325317
10593.750000	-122.855095
10617.187500	-124.741150
10640.625000	-124.990913
10664.062500	-124.623436
10687.500000	-125.304878
10710.937500	-125.132118
10734.375000	-124.188187
10757.812500	-122.658463
10781.250000	-122.056122
10804.687500	-124.082176
10828.125000	-125.381584
10851.562500	-125.861115
10875.000000	-125.854294
10898.437500	-124.696106
10921.875000	-123.997658
10945.312500	-125.095100
10968.750000	-125.118744
10992.187500	-124.368004
11015.625000	-124.410370
11039.062500	-124.754150
11062.500000	-124.836502
11085.937500	-124.286057
11109.375000	-124.539177
11132.812500	-125.225945
11156.250000	-125.534859
11179.687500	-124.907318
11203.125000	-124.856155
11226.562500	-125.466415
11250.000000	-125.722107
11273.437500	-126.018784
11296.875000	-125.665756
11320.312500	-125.070900
11343.750000	-124.516670
11367.187500	-123.725777
11390.625000	-123.818527
11414.062500	-123.995834
11437.500000	-124.940521
11460.937500	-125.514824
11484.375000	-125.396187
11507.812500	-125.256729
11531.250000	-125.294708
11554.687500	-124.788879
11578.125000	-124.610718
11601.562500	-124.798843
11625.000000	-124.037247
11648.437500	-124.283318
11671.875000	-124.507355
11695.312500	-124.822594
11718.750000	-124.731705
11742.187500	-125.339531
11765.625000	-125.896111
11789.062500	-125.870422
11812.500000	-125.384407
11835.937500	-125.488541
11859.375000	-125.248978
11882.812500	-124.859390
11906.250000	-123.989243
11929.687500	-125.183601
11953.125000	-125.623398
11976.562500	-125.766701
12000.000000	-126.155861
12023.437500	-126.307091
12046.875000	-125.784111
12070.312500	-124.669014
12093.750000	-125.335426
12117.187500	-126.477402
12140.625000	-126.706467
12164.062500	-126.413612
12187.500000	-125.271317
12210.937500	-125.140854
12234.375000	-125.470909
12257.812500	-125.982208
12281.250000	-126.293159
12304.687500	-126.098457
12328.125000	-126.102409
12351.562500	-126.393852
12375.000000	-125.757393
12398.437500	-125.882713
12421.875000	-126.107849
12445.312500	-125.426323
12468.750000	-125.892578
12492.187500	-126.277122
12515.625000	-126.366005
12539.062500	-126.630463
12562.500000	-126.467209
12585.937500	-125.835876
12609.375000	-125.957626
12632.812500	-126.451485
12656.250000	-126.617432
12679.687500	-126.315552
12703.125000	-126.138618
12726.562500	-126.099068
12750.000000	-126.436760
12773.437500	-126.395523
12796.875000	-126.157310
12820.312500	-125.841942
12843.750000	-125.970718
12867.187500	-126.569885
12890.625000	-126.313957
12914.062500	-126.319412
12937.500000	-125.951447
12960.937500	-125.516975
12984.375000	-126.324181
13007.812500	-126.531967
13031.250000	-126.556030
13054.687500	-126.088440
13078.125000	-126.617249
13101.562500	-126.927940
13125.000000	-126.939598
13148.437500	-126.784279
13171.875000	-126.208717
13195.312500	-125.803543
13218.750000	-126.283577
13242.187500	-126.524544
13265.625000	-126.278175
13289.062500	-126.297890
13312.500000	-126.699455
13335.937500	-126.815964
13359.375000	-126.599464
13382.812500	-126.264290
13406.250000	-126.620247
13429.687500	-126.889519
13453.125000	-126.962524
13476.562500	-126.601646
13500.000000	-126.629807
13523.437500	-127.014465
13546.875000	-127.223785
13570.312500	-126.804268
13593.750000	-126.823227
13617.187500	-126.734390
13640.625000	-126.719070
13664.062500	-126.439903
13687.500000	-126.891785
13710.937500	-127.127640
13734.375000	-127.393768
13757.812500	-127.386032
13781.250000	-126.842270
13804.687500	-126.671051
13828.125000	-126.568726
13851.562500	-126.764839
13875.000000	-127.199677
13898.437500	-126.966949
13921.875000	-126.863548
13945.312500	-127.173569
13968.750000	-127.105942
13992.187500	-127.288994
14015.625000	-127.560402
14039.062500	-127.527954
14062.500000	-127.317230
14085.937500	-127.096146
14109.375000	-126.609360
14132.812500	-126.707420
14156.250000	-127.118073
14179.687500	-127.343353
14203.125000	-127.223854
14226.562500	-127.131622
14250.000000	-127.125160
14273.437500	-127.238770
14296.875000	-127.320145
14320.312500	-127.334496
14343.750000	-127.208481
14367.187500	-126.901337
14390.625000	-127.199585
14414.062500	-127.090240
14437.500000	-126.755463
14460.937500	-127.271255
14484.375000	-127.532394
14507.812500	-127.619400
14531.250000	-127.884804
14554.687500	-127.533508
14578.125000	-127.643494
14601.562500	-127.683495
14625.000000	-127.236313
14648.437500	-127.097389
14671.875000	-127.514748
14695.312500	-127.560043
14718.750000	-127.561371
14742.187500	-127.529251
14765.625000	-127.607948
14789.062500	-127.497757
14812.500000	-127.453949
14835.937500	-127.715439
14859.375000	-127.736641
14882.812500	-127.771240
14906.250000	-127.649689
14929.687500	-127.519196
14953.125000	-127.646500
14976.562500	-127.845367
15000.000000	-127.843071
15023.437500	-127.648407
15046.875000	-127.709335
15070.312500	-127.794769
15093.750000	-127.847328
15117.187500	-127.728905
15140.625000	-127.487381
15164.062500	-126.964668
15187.500000	-126.815544
15210.937500	-127.181259
15234.375000	-127.743607
15257.812500	-127.961250
15281.250000	-128.006592
15304.687500	-128.044861
15328.125000	-127.929024
15351.562500	-127.574783
15375.000000	-127.567337
15398.437500	-127.629021
15421.875000	-127.877792
15445.312500	-127.749771
15468.750000	-127.239655
15492.187500	-127.322678
15515.625000	-127.516739
15539.062500	-127.810989
15562.500000	-127.932358
15585.937500	-127.843651
15609.375000	-127.859985
15632.812500	-127.888397
15656.250000	-128.057800
15679.687500	-128.107803
15703.125000	-128.023514
15726.562500	-127.802658
15750.000000	-127.664406
15773.437500	-127.873260
15796.875000	-128.017792
15820.312500	-127.875099
15843.750000	-128.041565
15867.187500	-127.991898
15890.625000	-128.036057
15914.062500	-127.854736
15937.500000	-127.752838
15960.937500	-127.873924
15984.375000	-127.864441
16007.812500	-127.669518
16031.250000	-127.258423
16054.687500	-127.584709
16078.125000	-127.900055
16101.562500	-127.801926
16125.000000	-128.058075
16148.437500	-128.137100
16171.875000	-128.088013
16195.312500	-128.067093
16218.750000	-128.129181
16242.187500	-128.037262
16265.625000	-127.866508
16289.062500	-127.788391
16312.500000	-127.837807
16335.937500	-127.998749
16359.375000	-127.915833
16382.812500	-127.660706
16406.250000	-127.797493
16429.687500	-127.973160
16453.125000	-128.108231
16476.562500	-128.211166
16500.000000	-128.255997
16523.437500	-128.276855
16546.875000	-128.148880
16570.312500	-128.024521
16593.750000	-128.073242
16617.187500	-128.103165
16640.625000	-128.140747
16664.062500	-128.138779
16687.500000	-128.001022
16710.937500	-128.094391
16734.375000	-128.326157
16757.812500	-128.424622
16781.250000	-128.304031
16804.687500	-128.054504
16828.125000	-128.037582
16851.562500	-128.088913
16875.000000	-128.251846
16898.437500	-128.270569
16921.875000	-128.268188
16945.312500	-128.312958
16968.750000	-128.357758
16992.187500	-128.383514
17015.625000	-128.436768
17039.062500	-128.342239
17062.500000	-128.102173
17085.937500	-128.121689
17109.375000	-128.447372
17132.812500	-128.470139
17156.250000	-128.330139
17179.687500	-128.146606
17203.125000	-127.974716
17226.562500	-128.192352
17250.000000	-128.414993
17273.437500	-128.303238
17296.875000	-128.152725
17320.312500	-128.237503
17343.750000	-128.322052
17367.187500	-128.327515
17390.625000	-128.401443
17414.062500	-128.288422
17437.500000	-128.194534
17460.937500	-128.200821
17484.375000	-128.289932
17507.812500	-128.411682
17531.250000	-128.484497
17554.687500	-128.421051
17578.125000	-128.537552
17601.562500	-128.533554
17625.000000	-128.410080
17648.437500	-128.500565
17671.875000	-128.572800
17695.312500	-128.455566
17718.750000	-128.410751
17742.187500	-128.454422
17765.625000	-128.444489
17789.062500	-128.387436
17812.500000	-128.550354
17835.937500	-128.491165
17859.375000	-128.422668
17882.812500	-128.518356
17906.250000	-128.496536
17929.687500	-128.512115
17953.125000	-128.498581
17976.562500	-128.527969
18000.000000	-128.588806
18023.437500	-128.719528
18046.875000	-128.668320
18070.312500	-128.585907
18093.750000	-128.521484
18117.187500	-128.614120
18140.625000	-128.645294
18164.062500	-128.622040
18187.500000	-128.527130
18210.937500	-128.580765
18234.375000	-128.564697
18257.812500	-128.493896
18281.250000	-128.440704
18304.687500	-128.547379
18328.125000	-128.575058
18351.562500	-128.556534
18375.000000	-128.469406
18398.437500	-128.442810
18421.875000	-128.548035
18445.312500	-128.599716
18468.750000	-128.463669
18492.187500	-128.568741
18515.625000	-128.679825
18539.062500	-128.675629
18562.500000	-128.619827
18585.937500	-128.614899
18609.375000	-128.686768
18632.812500	-128.700485
18656.250000	-128.578674
18679.687500	-128.592407
18703.125000	-128.580994
18726.562500	-128.621429
18750.000000	-128.686829
18773.437500	-128.573730
18796.875000	-128.606750
18820.312500	-128.671112
18843.750000	-128.660538
18867.187500	-128.639420
18890.625000	-128.630875
18914.062500	-128.614883
18937.500000	-128.646805
18960.937500	-128.590149
18984.375000	-128.643661
19007.812500	-128.639465
19031.250000	-128.731186
19054.687500	-128.671570
19078.125000	-128.646469
19101.562500	-128.620193
19125.000000	-128.635513
19148.437500	-128.635101
19171.875000	-128.315735
19195.312500	-128.281830
19218.750000	-128.490601
19242.187500	-128.440475
19265.625000	-128.502396
19289.062500	-128.659760
19312.500000	-128.638977
19335.937500	-128.534531
19359.375000	-128.610199
19382.812500	-128.665466
19406.250000	-128.741135
19429.687500	-128.794647
19453.125000	-128.890350
19476.562500	-128.774979
19500.000000	-128.694565
19523.437500	-128.680847
19546.875000	-128.752197
19570.312500	-128.610672
19593.750000	-128.680710
19617.187500	-128.769363
19640.625000	-128.865585
19664.062500	-128.897842
19687.500000	-128.845627
19710.937500	-128.862946
19734.375000	-128.821823
19757.812500	-128.804352
19781.250000	-128.782959
19804.687500	-128.838821
19828.125000	-128.733505
19851.562500	-128.699234
19875.000000	-128.768555
19898.437500	-128.804047
19921.875000	-128.765945
19945.312500	-128.794312
19968.750000	-128.686859
19992.187500	-128.853531
20015.625000	-128.845764
20039.062500	-128.820465
20062.500000	-128.870560
20085.937500	-128.908340
20109.375000	-128.799026
20132.812500	-128.533142
20156.250000	-128.773666
20179.687500	-128.894577
20203.125000	-128.889282
20226.562500	-128.854126
20250.000000	-128.873367
20273.437500	-128.782364
20296.875000	-128.770935
20320.312500	-128.822403
20343.750000	-128.875031
20367.187500	-128.830154
20390.625000	-128.771927
20414.062500	-128.791351
20437.500000	-128.895798
20460.937500	-128.799561
20484.375000	-128.769653
20507.812500	-128.865753
20531.250000	-128.814026
20554.687500	-128.807785
20578.125000	-128.770172
20601.562500	-128.867844
20625.000000	-128.912964
20648.437500	-128.886124
20671.875000	-128.835419
20695.312500	-128.837524
20718.750000	-128.861984
20742.187500	-128.826477
20765.625000	-128.802490
20789.062500	-128.840973
20812.500000	-128.887665
20835.937500	-128.887604
20859.375000	-128.916504
20882.812500	-128.934433
20906.250000	-128.792496
20929.687500	-128.835342
20953.125000	-128.847549
20976.562500	-128.860504
21000.000000	-128.773849
21023.437500	-128.886139
21046.875000	-128.950424
21070.312500	-128.964066
21093.750000	-128.890839
21117.187500	-128.836578
21140.625000	-128.790237
21164.062500	-128.846771
21187.500000	-128.906891
21210.937500	-128.828598
21234.375000	-128.928772
21257.812500	-128.971649
21281.250000	-128.982788
21304.687500	-128.990005
21328.125000	-128.997910
21351.562500	-128.951462
21375.000000	-128.919922
21398.437500	-129.029312
21421.875000	-128.942200
21445.312500	-129.012360
21468.750000	-128.926926
21492.187500	-128.926743
21515.625000	-129.025452
21539.062500	-128.978226
21562.500000	-129.010208
21585.937500	-128.975571
21609.375000	-129.021225
21632.812500	-128.993988
21656.250000	-128.926483
21679.687500	-128.961166
21703.125000	-128.884125
21726.562500	-128.956970
21750.000000	-128.936005
21773.437500	-128.983932
21796.875000	-128.990524
21820.312500	-129.012909
21843.750000	-129.024704
21867.187500	-129.110962
21890.625000	-129.149323
21914.062500	-129.106018
21937.500000	-128.961639
21960.937500	-128.973984
21984.375000	-129.053207
22007.812500	-128.983810
22031.250000	-128.948257
22054.687500	-128.899246
22078.125000	-129.056091
22101.562500	-129.090118
22125.000000	-129.025665
22148.437500	-128.944946
22171.875000	-128.981262
22195.312500	-129.045074
22218.750000	-129.094864
22242.187500	-129.016998
22265.625000	-128.994705
22289.062500	-129.036728
22312.500000	-129.043823
22335.937500	-128.976715
22359.375000	-128.904083
22382.812500	-128.960922
22406.250000	-129.029404
22429.687500	-129.036087
22453.125000	-128.936157
22476.562500	-128.996628
22500.000000	-129.004791
22523.437500	-129.035370
22546.875000	-128.936111
22570.312500	-128.961884
22593.750000	-128.906815
22617.187500	-128.898926
22640.625000	-128.898560
22664.062500	-128.988831
22687.500000	-129.109756
22710.937500	-129.062241
22734.375000	-129.051620
22757.812500	-129.025925
22781.250000	-129.088394
22804.687500	-129.052094
22828.125000	-129.039932
22851.562500	-129.069687
22875.000000	-128.965088
22898.437500	-128.981354
22921.875000	-128.923584
22945.312500	-128.974823
22968.750000	-128.930191
22992.187500	-128.950836
23015.625000	-128.975433
23039.062500	-129.024429
23062.500000	-129.063095
23085.937500	-129.031143
23109.375000	-129.036530
23132.812500	-129.134262
23156.250000	-129.045654
23179.687500	-129.080643
23203.125000	-129.009262
23226.562500	-129.002380
23250.000000	-129.056900
23273.437500	-129.069580
23296.875000	-128.906403
23320.312500	-128.880096
23343.750000	-128.976334
23367.187500	-128.990829
23390.625000	-128.967041
23414.062500	-129.022064
23437.500000	-129.022049
23460.937500	-129.022476
23484.375000	-129.070602
23507.812500	-129.082886
23531.250000	-129.090561
23554.687500	-129.048630
23578.125000	-128.963806
23601.562500	-129.028275
23625.000000	-129.077377
23648.437500	-129.022079
23671.875000	-129.036987
23695.312500	-129.039917
23718.750000	-129.090073
23742.187500	-129.157516
23765.625000	-129.115463
23789.062500	-129.106796
23812.500000	-129.115555
23835.937500	-129.068634
23859.375000	-129.101318
23882.812500	-129.001205
23906.250000	-129.023361
23929.687500	-129.035095
23953.125000	-129.073456
23976.562500	-129.006760
24000.000000	-128.987625
24023.437500	-128.922562
24046.875000	-129.033127
24070.312500	-129.063858
24093.750000	-129.046112
24117.187500	-129.038483
24140.625000	-129.071518
24164.062500	-129.075287
24187.500000	-128.921097
24210.937500	-128.988617
24234.375000	-129.013779
24257.812500	-128.933273
24281.250000	-129.056656
24304.687500	-129.056763
24328.125000	-129.098572
24351.562500	-129.088058
24375.000000	-129.091919
24398.437500	-129.080688
24421.875000	-129.022644
24445.312500	-128.981247
24468.750000	-128.951080
24492.187500	-129.047684
24515.625000	-129.033813
24539.062500	-128.960617
24562.500000	-128.953033
24585.937500	-128.928955
24609.375000	-129.001694
24632.812500	-128.977753
24656.250000	-129.031143
24679.687500	-129.005035
24703.125000	-128.974365
24726.562500	-129.097946
24750.000000	-129.108978
24773.437500	-129.096985
24796.875000	-129.046463
24820.312500	-129.144318
24843.750000	-129.104004
24867.187500	-129.017990
24890.625000	-128.989670
24914.062500	-128.986465
24937.500000	-129.026016
24960.937500	-129.108994
24984.375000	-129.018906
25007.812500	-128.973907
25031.250000	-128.946487
25054.687500	-128.905609
25078.125000	-129.077927
25101.562500	-129.049286
25125.000000	-129.075348
25148.437500	-129.130234
25171.875000	-129.082611
25195.312500	-129.034592
25218.750000	-129.034851
25242.187500	-129.057602
25265.625000	-129.071518
25289.062500	-129.105240
25312.500000	-129.067947
25335.937500	-128.963058
25359.375000	-128.995407
25382.812500	-128.983292
25406.250000	-129.019455
25429.687500	-128.977127
25453.125000	-128.956268
25476.562500	-129.036667
25500.000000	-128.976242
25523.437500	-129.048462
25546.875000	-129.218430
25570.312500	-129.150436
25593.750000	-129.103729
25617.187500	-129.055283
25640.625000	-129.050339
25664.062500	-129.069962
25687.500000	-129.142014
25710.937500	-129.040878
25734.375000	-129.070694
25757.812500	-129.124359
25781.250000	-129.097672
25804.687500	-129.100220
25828.125000	-129.009720
25851.562500	-129.015091
25875.000000	-129.003922
25898.437500	-129.030457
25921.875000	-129.005936
25945.312500	-128.993347
25968.750000	-129.111954
25992.187500	-129.155777
26015.625000	-129.154785
26039.062500	-129.100342
26062.500000	-129.131332
26085.937500	-129.136902
26109.375000	-129.051514
26132.812500	-129.123566
26156.250000	-129.082382
26179.687500	-129.031357
26203.125000	-128.975311
26226.562500	-128.981277
26250.000000	-128.922501
26273.437500	-128.919098
26296.875000	-129.036957
26320.312500	-128.965286
26343.750000	-129.003128
26367.187500	-128.986847
26390.625000	-129.009918
26414.062500	-128.929184
26437.500000	-129.000336
26460.937500	-129.015076
26484.375000	-128.933823
26507.812500	-128.954407
26531.250000	-128.946793
26554.687500	-129.043594
26578.125000	-129.034531
26601.562500	-129.058380
26625.000000	-129.039520
26648.437500	-129.046021
26671.875000	-129.059280
26695.312500	-129.091202
26718.750000	-129.025162
26742.187500	-129.059967
26765.625000	-129.021194
26789.062500	-129.032990
26812.500000	-128.996948
26835.937500	-129.014267
26859.375000	-129.021561
26882.812500	-128.992828
26906.250000	-129.091171
26929.687500	-129.074615
26953.125000	-129.098343
26976.562500	-129.070877
27000.000000	-129.016052
27023.437500	-129.127228
27046.875000	-129.058136
27070.312500	-129.015457
27093.750000	-129.030289
27117.187500	-128.988647
27140.625000	-128.989075
27164.062500	-129.017853
27187.500000	-129.029419
27210.937500	-129.080185
27234.375000	-128.976578
27257.812500	-128.939011
27281.250000	-128.964874
27304.687500	-129.007309
27328.125000	-128.963943
27351.562500	-129.023727
27375.000000	-128.937286
27398.437500	-129.005951
27421.875000	-129.039017
27445.312500	-129.015198
27468.750000	-128.971313
27492.187500	-128.954910
27515.625000	-129.029709
27539.062500	-129.072296
27562.500000	-129.081055
27585.937500	-129.070190
27609.375000	-129.078445
27632.812500	-129.079102
27656.250000	-128.942657
27679.687500	-129.035812
27703.125000	-129.159882
27726.562500	-129.173492
27750.000000	-129.103317
27773.437500	-129.026535
27796.875000	-128.978699
27820.312500	-129.053879
27843.750000	-129.091904
27867.187500	-129.076477
27890.625000	-129.064667
27914.062500	-128.980194
27937.500000	-129.014175
27960.937500	-129.074875
27984.375000	-129.005478
28007.812500	-128.886887
28031.250000	-128.927185
28054.687500	-129.004562
28078.125000	-128.974350
28101.562500	-128.956024
28125.000000	-129.041580
28148.437500	-129.095795
28171.875000	-129.029327
28195.312500	-128.977676
28218.750000	-128.912552
28242.187500	-128.948975
28265.625000	-129.037979
28289.062500	-129.000961
28312.500000	-128.998123
28335.937500	-129.002930
28359.375000	-128.999237
28382.812500	-129.037140
28406.250000	-129.029175
28429.687500	-129.092545
28453.125000	-129.054947
28476.562500	-129.070602
28500.000000	-129.063873
28523.437500	-129.138550
28546.875000	-129.205078
28570.312500	-129.125977
28593.750000	-128.968307
28617.187500	-128.991333
28640.625000	-129.054565
28664.062500	-129.039368
28687.500000	-129.023575
28710.937500	-128.979507
28734.375000	-129.003708
28757.812500	-128.996384
28781.250000	-128.999786
28804.687500	-128.982666
28828.125000	-129.115570
28851.562500	-129.173798
28875.000000	-129.112946
28898.437500	-129.045929
28921.875000	-129.071243
28945.312500	-129.075821
28968.750000	-129.041183
28992.187500	-129.140869
29015.625000	-128.965637
29039.062500	-129.043671
29062.500000	-129.104416
29085.937500	-129.058044
29109.375000	-128.964493
29132.812500	-129.003769
29156.250000	-128.998795
29179.687500	-128.994812
29203.125000	-129.037781
29226.562500	-129.047974
29250.000000	-129.027222
29273.437500	-129.103043
29296.875000	-129.099411
29320.312500	-129.053268
29343.750000	-129.015320
29367.187500	-129.073685
29390.625000	-129.084335
29414.062500	-129.069855
29437.500000	-129.078751
29460.937500	-129.008423
29484.375000	-129.004822
29507.812500	-129.027496
29531.250000	-128.991226
29554.687500	-129.061050
29578.125000	-129.044678
29601.562500	-129.058563
29625.000000	-129.167648
29648.437500	-129.044296
29671.875000	-129.063278
29695.312500	-129.088409
29718.750000	-129.134430
29742.187500	-129.119232
29765.625000	-129.071655
29789.062500	-129.011978
29812.500000	-129.008789
29835.937500	-128.934509
29859.375000	-128.922256
29882.812500	-129.002380
29906.250000	-129.109589
29929.687500	-129.045685
29953.125000	-129.028778
29976.562500	-128.967728
30000.000000	-129.075424
30023.437500	-129.238861
30046.875000	-129.166290
30070.312500	-129.077011
30093.750000	-128.982849
30117.187500	-128.985092
30140.625000	-128.963730
30164.062500	-129.037186
30187.500000	-129.017181
30210.937500	-129.017609
30234.375000	-129.027618
30257.812500	-128.997986
30281.250000	-128.987411
30304.687500	-129.100708
30328.125000	-129.154373
30351.562500	-129.092163
30375.000000	-129.069122
30398.437500	-129.014587
30421.875000	-129.018921
30445.312500	-129.064178
30468.750000	-129.136841
30492.187500	-129.002060
30515.625000	-129.038620
30539.062500	-129.011185
30562.500000	-128.984665
30585.937500	-128.964371
30609.375000	-129.005844
30632.812500	-129.094574
30656.250000	-129.048111
30679.687500	-129.162949
30703.125000	-129.086899
30726.562500	-129.055008
30750.000000	-129.030075
30773.437500	-129.109100
30796.875000	-129.098541
30820.312500	-129.026749
30843.750000	-129.024597
30867.187500	-129.023376
30890.625000	-129.093628
30914.062500	-129.018188
30937.500000	-129.024399
30960.937500	-129.073822
30984.375000	-129.059998
31007.812500	-129.057755
31031.250000	-129.067062
31054.687500	-128.996216
31078.125000	-128.986542
31101.562500	-129.145203
31125.000000	-129.205460
31148.437500	-129.096420
31171.875000	-128.991653
31195.312500	-129.000793
31218.750000	-129.000458
31242.187500	-128.916321
31265.625000	-129.002808
31289.062500	-129.126160
31312.500000	-129.111694
31335.937500	-129.017502
31359.375000	-128.969437
31382.812500	-129.101089
31406.250000	-129.119537
31429.687500	-129.008316
31453.125000	-129.057037
31476.562500	-129.013885
31500.000000	-129.088715
31523.437500	-129.043015
31546.875000	-129.018204
31570.312500	-129.074203
31593.750000	-129.003021
31617.187500	-129.023026
31640.625000	-129.014053
31664.062500	-129.038040
31687.500000	-129.044510
31710.937500	-129.076019
31734.375000	-129.111542
31757.812500	-129.057083
31781.250000	-129.016571
31804.687500	-129.135208
31828.125000	-129.078049
31851.562500	-129.000366
31875.000000	-129.018066
31898.437500	-129.086121
31921.875000	-129.044632
31945.312500	-128.998306
31968.750000	-128.981659
31992.187500	-128.897888
32015.625000	-128.914658
32039.062500	-128.953049
32062.500000	-129.051483
32085.937500	-129.010818
32109.375000	-129.015198
32132.812500	-129.017273
32156.250000	-129.018097
32179.687500	-129.024506
32203.125000	-129.000610
32226.562500	-129.062256
32250.000000	-129.004425
32273.437500	-129.012848
32296.875000	-129.032669
32320.312500	-128.967926
32343.750000	-128.956863
32367.187500	-128.962860
32390.625000	-128.953339
32414.062500	-128.912170
32437.500000	-128.909500
32460.937500	-128.961044
32484.375000	-129.011047
32507.812500	-129.055191
32531.250000	-129.003372
32554.687500	-128.980469
32578.125000	-129.040726
32601.562500	-129.050583
32625.000000	-129.031967
32648.437500	-129.028152
32671.875000	-129.034210
32695.312500	-128.984924
32718.750000	-129.001785
32742.187500	-128.958725
32765.625000	-128.997162
32789.062500	-129.037308
32812.500000	-128.971191
32835.937500	-129.077438
32859.375000	-129.081360
32882.812500	-129.118759
32906.250000	-129.124573
32929.687500	-129.003693
32953.125000	-129.011642
32976.562500	-129.024887
33000.000000	-128.997192
33023.437500	-129.048264
33046.875000	-129.046204
33070.312500	-129.011078
33093.750000	-129.000992
33117.187500	-128.969849
33140.625000	-129.005646
33164.062500	-128.997833
33187.500000	-129.016098
33210.937500	-128.941513
33234.375000	-128.928879
33257.812500	-128.958801
33281.250000	-128.881287
33304.687500	-129.014755
33328.125000	-129.039322
33351.562500	-129.043564
33375.000000	-128.954742
33398.437500	-128.988983
33421.875000	-128.997345
33445.312500	-129.100388
33468.750000	-129.060608
33492.187500	-128.981842
33515.625000	-129.019669
33539.062500	-128.971649
33562.500000	-128.874908
33585.937500	-128.898941
33609.375000	-128.950989
33632.812500	-129.034348
33656.250000	-129.000107
33679.687500	-128.951523
33703.125000	-129.013535
33726.562500	-129.010147
33750.000000	-129.104874
33773.437500	-129.090927
33796.875000	-129.062073
33820.312500	-129.057983
33843.750000	-129.071030
33867.187500	-128.997742
33890.625000	-128.986374
33914.062500	-128.923767
33937.500000	-128.930649
33960.937500	-128.977295
33984.375000	-129.009644
34007.812500	-128.985641
34031.250000	-129.010391
34054.687500	-129.063553
34078.125000	-128.918274
34101.562500	-128.931519
34125.000000	-128.976639
34148.437500	-129.015686
34171.875000	-129.110535
34195.312500	-129.030807
34218.750000	-129.042053
34242.187500	-129.022705
34265.625000	-128.925644
34289.062500	-128.975693
34312.500000	-128.955200
34335.937500	-128.955048
34359.375000	-128.961395
34382.812500	-128.878845
34406.250000	-129.015152
34429.687500	-129.067444
34453.125000	-128.980103
34476.562500	-129.013290
34500.000000	-129.075500
34523.437500	-129.059143
34546.875000	-129.035324
34570.312500	-128.922516
34593.750000	-128.929443
34617.187500	-129.014877
34640.625000	-129.020599
34664.062500	-128.940140
34687.500000	-128.880249
34710.937500	-128.949203
34734.375000	-128.967728
34757.812500	-129.005768
34781.250000	-129.053467
34804.687500	-129.034851
34828.125000	-128.954941
34851.562500	-128.934494
34875.000000	-128.976303
34898.437500	-128.975327
34921.875000	-129.049042
34945.312500	-129.102020
34968.750000	-129.028656
34992.187500	-128.982895
35015.625000	-129.004776
35039.062500	-128.971436
35062.500000	-128.989120
35085.937500	-128.903091
35109.375000	-128.933609
35132.812500	-128.861267
35156.250000	-128.970078
35179.687500	-128.961227
35203.125000	-128.872299
35226.562500	-128.911072
35250.000000	-128.966537
35273.437500	-128.967712
35296.875000	-128.993561
35320.312500	-128.980194
35343.750000	-128.944443
35367.187500	-128.985901
35390.625000	-129.014816
35414.062500	-128.970093
35437.500000	-128.933487
35460.937500	-128.932098
35484.375000	-128.947815
35507.812500	-128.857224
35531.250000	-128.913910
35554.687500	-128.994888
35578.125000	-129.009109
35601.562500	-129.053299
35625.000000	-129.086365
35648.437500	-129.128998
35671.875000	-128.990295
35695.312500	-128.947296
35718.750000	-129.038986
35742.187500	-129.057053
35765.625000	-128.979034
35789.062500	-128.973618
35812.500000	-129.033340
35835.937500	-129.052383
35859.375000	-128.917419
35882.812500	-128.914047
35906.250000	-128.862640
35929.687500	-128.893005
35953.125000	-128.894440
35976.562500	-128.934738
36000.000000	-128.995453
36023.437500	-129.036926
36046.875000	-129.005798
36070.312500	-128.981506
36093.750000	-128.924713
36117.187500	-128.890411
36140.625000	-128.868393
36164.062500	-128.865631
36187.500000	-128.853989
36210.937500	-128.958878
36234.375000	-128.965714
36257.812500	-128.934586
36281.250000	-128.889954
36304.687500	-128.942459
36328.125000	-128.939590
36351.562500	-128.912521
36375.000000	-128.937134
36398.437500	-128.936111
36421.875000	-128.905624
36445.312500	-128.828156
36468.750000	-128.834503
36492.187500	-128.899597
36515.625000	-128.897247
36539.062500	-128.923691
36562.500000	-128.948303
36585.937500	-128.930618
36609.375000	-128.936157
36632.812500	-128.952240
36656.250000	-128.930786
36679.687500	-128.936249
36703.125000	-128.989578
36726.562500	-128.956039
36750.000000	-128.904709
36773.437500	-128.960297
36796.875000	-128.901550
36820.312500	-128.929199
36843.750000	-128.899353
36867.187500	-128.887543
36890.625000	-128.929489
36914.062500	-128.875763
36937.500000	-128.852356
36960.937500	-128.891403
36984.375000	-128.976685
37007.812500	-128.951645
37031.250000	-128.973694
37054.687500	-128.994797
37078.125000	-128.975418
37101.562500	-129.004578
37125.000000	-128.922684
37148.437500	-128.852478
37171.875000	-128.968643
37195.312500	-128.943985
37218.750000	-128.992203
37242.187500	-128.919266
37265.625000	-128.934860
37289.062500	-128.930511
37312.500000	-128.873749
37335.937500	-128.970367
37359.375000	-128.966690
37382.812500	-128.955978
37406.250000	-128.873306
37429.687500	-128.867737
37453.125000	-128.930099
37476.562500	-128.853241
37500.000000	-128.839020
37523.437500	-128.895905
37546.875000	-128.845093
37570.312500	-128.867645
37593.750000	-128.904099
37617.187500	-128.857574
37640.625000	-128.933670
37664.062500	-128.919586
37687.500000	-128.906418
37710.937500	-128.885925
37734.375000	-128.836578
37757.812500	-128.800385
37781.250000	-128.849487
37804.687500	-128.887802
37828.125000	-128.902634
37851.562500	-128.834854
37875.000000	-128.804474
37898.437500	-128.860306
37921.875000	-128.866348
37945.312500	-128.892319
37968.750000	-129.020615
37992.187500	-128.939880
38015.625000	-128.920609
38039.062500	-128.867065
38062.500000	-128.879669
38085.937500	-128.859894
38109.375000	-128.903931
38132.812500	-128.875122
38156.250000	-128.912048
38179.687500	-128.937286
38203.125000	-128.884430
38226.562500	-128.896820
38250.000000	-128.935104
38273.437500	-128.900009
38296.875000	-128.849472
38320.312500	-128.831238
38343.750000	-128.954941
38367.187500	-128.923752
38390.625000	-128.855240
38414.062500	-128.834595
38437.500000	-128.791672
38460.937500	-128.874695
38484.375000	-128.893784
38507.812500	-128.868912
38531.250000	-128.803345
38554.687500	-128.817810
38578.125000	-128.790344
38601.562500	-128.797180
38625.000000	-128.759811
38648.437500	-128.765427
38671.875000	-128.833389
38695.312500	-128.826401
38718.750000	-128.919373
38742.187500	-128.983948
38765.625000	-128.867447
38789.062500	-128.969894
38812.500000	-128.864395
38835.937500	-128.832306
38859.375000	-128.850311
38882.812500	-128.884109
38906.250000	-128.961227
38929.687500	-128.968964
38953.125000	-128.864807
38976.562500	-128.874451
39000.000000	-128.935257
39023.437500	-128.837448
39046.875000	-128.813660
39070.312500	-128.808823
39093.750000	-128.898315
39117.187500	-128.938080
39140.625000	-128.789841
39164.062500	-128.802017
39187.500000	-128.797501
39210.937500	-128.753937
39234.375000	-128.792725
39257.812500	-128.800552
39281.250000	-128.770142
39304.687500	-128.793335
39328.125000	-128.865341
39351.562500	-128.967041
39375.000000	-128.859833
39398.437500	-128.807510
39421.875000	-128.870575
39445.312500	-128.836197
39468.750000	-128.857330
39492.187500	-128.913040
39515.625000	-128.787033
39539.062500	-128.764038
39562.500000	-128.757477
39585.937500	-128.821289
39609.375000	-128.874603
39632.812500	-128.807495
39656.250000	-128.726562
39679.687500	-128.766159
39703.125000	-128.815567
39726.562500	-128.768356
39750.000000	-128.770279
39773.437500	-128.826843
39796.875000	-128.846054
39820.312500	-128.804123
39843.750000	-128.878662
39867.187500	-128.901733
39890.625000	-128.956726
39914.062500	-128.833893
39937.500000	-128.778030
39960.937500	-128.834610
39984.375000	-128.896042
40007.812500	-128.907059
40031.250000	-128.817307
40054.687500	-128.872498
40078.125000	-128.919296
40101.562500	-128.800873
40125.000000	-128.748535
40148.437500	-128.766586
40171.875000	-128.785538
40195.312500	-128.846741
40218.750000	-128.877060
40242.187500	-128.869568
40265.625000	-128.646255
40289.062500	-128.744125
40312.500000	-128.772781
40335.937500	-128.834518
40359.375000	-128.880219
40382.812500	-128.831131
40406.250000	-128.728287
40429.687500	-128.808136
40453.125000	-128.877914
40476.562500	-128.814636
40500.000000	-128.729248
40523.437500	-128.738983
40546.875000	-128.886841
40570.312500	-128.847794
40593.750000	-128.833618
40617.187500	-128.853256
40640.625000	-128.933243
40664.062500	-128.933014
40687.500000	-128.858841
40710.937500	-128.835144
40734.375000	-128.821655
40757.812500	-128.912933
40781.250000	-128.930298
40804.687500	-128.880463
40828.125000	-128.900314
40851.562500	-128.868423
40875.000000	-128.781067
40898.437500	-128.813629
40921.875000	-128.923401
40945.312500	-128.898026
40968.750000	-128.846237
40992.187500	-128.811172
41015.625000	-128.890945
41039.062500	-128.943542
41062.500000	-128.884171
41085.937500	-128.890579
41109.375000	-128.872879
41132.812500	-128.815613
41156.250000	-128.887665
41179.687500	-128.940231
41203.125000	-128.848984
41226.562500	-128.809586
41250.000000	-128.835495
41273.437500	-128.901077
41296.875000	-128.863647
41320.312500	-128.853973
41343.750000	-128.766861
41367.187500	-128.875595
41390.625000	-128.945618
41414.062500	-128.799576
41437.500000	-128.820831
41460.937500	-128.878937
41484.375000	-128.928955
41507.812500	-128.892120
41531.250000	-128.846893
41554.687500	-128.890930
41578.125000	-128.828583
41601.562500	-128.833649
41625.000000	-128.941849
41648.437500	-128.965530
41671.875000	-128.885193
41695.312500	-128.868271
41718.750000	-128.916855
41742.187500	-128.907471
41765.625000	-128.943420
41789.062500	-128.913895
41812.500000	-128.964127
41835.937500	-128.965302
41859.375000	-128.938782
41882.812500	-128.895630
41906.250000	-128.792633
41929.687500	-128.852768
41953.125000	-128.844040
41976.562500	-128.902344
42000.000000	-128.934235
42023.437500	-128.993332
42046.875000	-129.005646
42070.312500	-128.975571
42093.750000	-129.087402
42117.187500	-129.042099
42140.625000	-128.978073
42164.062500	-129.115799
42187.500000	-129.000992
42210.937500	-128.967026
42234.375000	-128.870911
42257.812500	-129.001205
42281.250000	-129.120865
42304.687500	-129.078140
42328.125000	-129.005173
42351.562500	-129.030914
42375.000000	-129.005280
42398.437500	-128.986679
42421.875000	-129.057480
42445.312500	-128.983612
42468.750000	-128.925018
42492.187500	-128.984787
42515.625000	-129.071121
42539.062500	-129.060776
42562.500000	-129.068359
42585.937500	-129.023346
42609.375000	-129.000290
42632.812500	-129.088715
42656.250000	-129.095459
42679.687500	-129.081390
42703.125000	-129.091202
42726.562500	-129.078033
42750.000000	-129.070877
42773.437500	-129.101776
42796.875000	-129.084503
42820.312500	-129.148544
42843.750000	-129.123398
42867.187500	-129.211777
42890.625000	-129.157715
42914.062500	-129.150146
42937.500000	-129.177002
42960.937500	-129.203568
42984.375000	-129.242996
43007.812500	-129.155243
43031.250000	-129.118149
43054.687500	-129.096054
43078.125000	-129.138229
43101.562500	-129.143372
43125.000000	-129.250122
43148.437500	-129.265900
43171.875000	-129.124222
43195.312500	-129.192368
43218.750000	-129.285446
43242.187500	-129.282745
43265.625000	-129.305145
43289.062500	-129.265518
43312.500000	-129.219269
43335.937500	-129.173798
43359.375000	-129.323944
43382.812500	-129.306549
43406.250000	-129.288422
43429.687500	-129.251282
43453.125000	-129.207901
43476.562500	-129.179810
43500.000000	-129.218674
43523.437500	-129.271271
43546.875000	-129.295151
43570.312500	-129.281082
43593.750000	-129.389542
43617.187500	-129.442215
43640.625000	-129.393173
43664.062500	-129.392776
43687.500000	-129.413879
43710.937500	-129.403107
43734.375000	-129.449509
43757.812500	-129.461990
43781.250000	-129.468124
43804.687500	-129.411850
43828.125000	-129.426987
43851.562500	-129.448853
43875.000000	-129.505371
43898.437500	-129.541580
43921.875000	-129.492645
43945.312500	-129.529556
43968.750000	-129.558670
43992.187500	-129.507904
44015.625000	-129.529388
44039.062500	-129.560089
44062.500000	-129.570709
44085.937500	-129.571060
44109.375000	-129.564102
44132.812500	-129.668991
44156.250000	-129.621185
44179.687500	-129.653854
44203.125000	-129.635605
44226.562500	-129.649994
44250.000000	-129.647858
44273.437500	-129.660339
44296.875000	-129.650085
44320.312500	-129.666260
44343.750000	-129.763947
44367.187500	-129.724060
44390.625000	-129.670563
44414.062500	-129.729630
44437.500000	-129.732620
44460.937500	-129.692535
44484.375000	-129.671402
44507.812500	-129.700974
44531.250000	-129.717697
44554.687500	-129.827072
44578.125000	-129.906601
44601.562500	-129.874329
44625.000000	-129.846619
44648.437500	-129.852966
44671.875000	-129.830505
44695.312500	-129.858231
44718.750000	-129.906082
44742.187500	-129.977615
44765.625000	-130.029861
44789.062500	-130.035477
44812.500000	-130.001434
44835.937500	-129.883911
44859.375000	-129.999191
44882.812500	-129.973892
44906.250000	-129.882874
44929.687500	-129.980103
44953.125000	-129.912323
44976.562500	-129.947968
45000.000000	-129.990524
45023.437500	-129.989578
45046.875000	-130.089111
45070.312500	-130.099777
45093.750000	-130.118683
45117.187500	-130.128647
45140.625000	-130.082794
45164.062500	-130.090561
45187.500000	-130.170303
45210.937500	-130.219681
45234.375000	-130.257935
45257.812500	-130.187881
45281.250000	-130.205399
45304.687500	-130.251877
45328.125000	-130.224396
45351.562500	-130.298508
45375.000000	-130.281784
45398.437500	-130.226288
45421.875000	-130.214493
45445.312500	-130.231644
45468.750000	-130.261490
45492.187500	-130.340897
45515.625000	-130.317841
45539.062500	-130.330917
45562.500000	-130.429962
45585.937500	-130.402618
45609.375000	-130.369110
45632.812500	-130.359039
45656.250000	-130.380173
45679.687500	-130.356064
45703.125000	-130.370392
45726.562500	-130.428162
45750.000000	-130.432983
45773.437500	-130.469971
45796.875000	-130.516998
45820.312500	-130.536285
45843.750000	-130.567200
45867.187500	-130.529770
45890.625000	-130.519211
45914.062500	-130.523743
45937.500000	-130.485565
45960.937500	-130.510452
45984.375000	-130.543625
46007.812500	-130.603119
46031.250000	-130.638611
46054.687500	-130.631638
46078.125000	-130.538864
46101.562500	-130.627731
46125.000000	-130.629181
46148.437500	-130.737869
46171.875000	-130.744003
46195.312500	-130.884750
46218.750000	-130.765045
46242.187500	-130.762527
46265.625000	-130.715637
46289.062500	-130.802917
46312.500000	-130.778397
46335.937500	-130.671906
46359.375000	-130.728958
46382.812500	-130.849289
46406.250000	-130.857285
46429.687500	-130.793137
46453.125000	-130.862885
46476.562500	-130.782593
46500.000000	-130.767563
46523.437500	-130.864731
46546.875000	-130.792618
46570.312500	-130.838181
46593.750000	-130.925552
46617.187500	-130.961945
46640.625000	-130.948730
46664.062500	-130.950043
46687.500000	-130.920990
46710.937500	-130.939880
46734.375000	-130.955399
46757.812500	-131.024445
46781.250000	-131.133698
46804.687500	-131.062820
46828.125000	-131.001816
46851.562500	-131.011322
46875.000000	-131.066101
46898.437500	-131.099945
46921.875000	-130.946548
46945.312500	-130.976135
46968.750000	-131.083405
46992.187500	-131.077606
47015.625000	-131.153946
47039.062500	-131.224258
47062.500000	-131.248199
47085.937500	-131.136261
47109.375000	-131.136124
47132.812500	-131.198669
47156.250000	-131.245880
47179.687500	-131.161758
47203.125000	-131.248657
47226.562500	-131.218292
47250.000000	-131.230576
47273.437500	-131.280746
47296.875000	-131.188324
47320.312500	-131.203735
47343.750000	-131.251282
47367.187500	-131.151321
47390.625000	-131.220825
47414.062500	-131.244812
47437.500000	-131.191040
47460.937500	-131.138763
47484.375000	-131.311874
47507.812500	-131.342575
47531.250000	-131.362045
47554.687500	-131.330276
47578.125000	-131.406906
47601.562500	-131.437943
47625.000000	-131.378616
47648.437500	-131.258316
47671.875000	-131.220993
47695.312500	-131.267960
47718.750000	-131.356491
47742.187500	-131.335938
47765.625000	-131.292511
47789.062500	-131.273773
47812.500000	-131.261215
47835.937500	-131.294586
47859.375000	-131.336456
47882.812500	-131.377594
47906.250000	-131.339874
47929.687500	-131.247345
47953.125000	-131.272873
47976.562500	-131.366898
