주파수 (Hz)	레벨 (dB)
23.437500	-103.428398
46.875000	-90.210434
70.312500	-78.274658
93.750000	-71.339470
117.187500	-67.355858
140.625000	-66.940819
164.062500	-66.085983
187.500000	-66.450783
210.937500	-63.394413
234.375000	-60.311131
257.812500	-64.890083
281.250000	-66.376205
304.687500	-67.325989
328.125000	-66.688812
351.562500	-64.250542
375.000000	-62.698048
398.437500	-65.429161
421.875000	-67.722839
445.312500	-66.888634
468.750000	-64.038048
492.187500	-67.263817
515.625000	-72.232002
539.062500	-67.836807
562.500000	-65.025749
585.937500	-69.725380
609.375000	-69.441689
632.812500	-68.697815
656.250000	-67.009209
679.687500	-68.487038
703.125000	-69.073593
726.562500	-72.722015
750.000000	-73.453354
773.437500	-76.154770
796.875000	-77.009941
820.312500	-71.837425
843.750000	-71.452881
867.187500	-72.806732
890.625000	-70.864609
914.062500	-78.330055
937.500000	-78.375870
960.937500	-81.498161
984.375000	-79.655891
1007.812500	-83.551147
1031.250000	-88.926064
1054.687500	-87.869484
1078.125000	-88.105881
1101.562500	-80.348686
1125.000000	-80.248840
1148.437500	-89.538048
1171.875000	-86.202003
1195.312500	-88.652161
1218.750000	-88.091583
1242.187500	-83.964111
1265.625000	-88.143677
1289.062500	-93.562096
1312.500000	-90.358688
1335.937500	-91.429855
1359.375000	-93.165527
1382.812500	-84.874443
1406.250000	-82.570190
1429.687500	-87.829582
1453.125000	-95.893616
1476.562500	-92.208183
1500.000000	-91.750656
1523.437500	-98.919373
1546.875000	-93.346870
1570.312500	-87.859444
1593.750000	-91.164886
1617.187500	-98.456154
1640.625000	-91.135872
1664.062500	-84.251663
1687.500000	-83.631836
1710.937500	-93.994057
1734.375000	-93.220772
1757.812500	-90.086975
1781.250000	-90.972725
1804.687500	-100.123856
1828.125000	-106.125992
1851.562500	-91.460136
1875.000000	-83.186226
1898.437500	-85.955025
1921.875000	-101.380600
1945.312500	-95.461807
1968.750000	-90.336815
1992.187500	-88.459534
2015.625000	-93.242561
2039.062500	-107.093330
2062.500000	-109.343170
2085.937500	-104.194061
2109.375000	-100.942917
2132.812500	-104.909279
2156.250000	-110.535210
2179.687500	-105.466072
2203.125000	-101.010674
2226.562500	-98.151596
2250.000000	-95.784912
2273.437500	-102.372505
2296.875000	-110.450653
2320.312500	-107.389389
2343.750000	-96.216568
2367.187500	-94.238159
2390.625000	-99.987236
2414.062500	-109.111267
2437.500000	-111.631111
2460.937500	-108.992691
2484.375000	-97.929298
2507.812500	-93.852394
2531.250000	-97.562241
2554.687500	-108.654991
2578.125000	-114.507744
2601.562500	-113.596657
2625.000000	-113.168716
2648.437500	-103.981430
2671.875000	-97.793968
2695.312500	-101.569641
2718.750000	-114.810799
2742.187500	-112.275703
2765.625000	-105.035530
2789.062500	-98.692650
2812.500000	-95.440292
2835.937500	-97.413528
2859.375000	-102.865875
2882.812500	-112.087173
2906.250000	-115.188660
2929.687500	-115.694397
2953.125000	-114.577835
2976.562500	-111.793198
3000.000000	-102.859261
3023.437500	-101.177063
3046.875000	-108.360451
3070.312500	-115.709747
3093.750000	-112.997528
3117.187500	-111.917671
3140.625000	-114.290024
3164.062500	-112.108505
3187.500000	-105.764908
3210.937500	-103.862335
3234.375000	-111.919868
3257.812500	-121.296593
3281.250000	-119.669159
3304.687500	-116.432190
3328.125000	-107.976906
3351.562500	-108.252884
3375.000000	-110.511292
3398.437500	-107.419922
3421.875000	-110.253479
3445.312500	-119.622520
3468.750000	-121.800323
3492.187500	-119.137527
3515.625000	-112.726799
3539.062500	-109.786095
3562.500000	-109.020851
3585.937500	-107.878754
3609.375000	-113.192108
3632.812500	-116.378464
3656.250000	-120.926308
3679.687500	-122.505447
3703.125000	-120.117310
3726.562500	-119.760170
3750.000000	-122.384415
3773.437500	-119.223785
3796.875000	-117.842445
3820.312500	-110.496948
3843.750000	-110.376633
3867.187500	-116.210297
3890.625000	-123.255638
3914.062500	-124.142891
3937.500000	-123.510681
3960.937500	-123.054665
3984.375000	-120.862923
4007.812500	-121.231850
4031.250000	-121.300285
4054.687500	-117.163750
4078.125000	-117.696228
4101.562500	-122.631035
4125.000000	-125.137924
4148.437500	-125.769814
4171.875000	-124.384056
4195.312500	-122.462753
4218.750000	-122.835503
4242.187500	-118.253654
4265.625000	-119.202339
4289.062500	-123.037201
4312.500000	-116.591789
4335.937500	-111.214981
4359.375000	-115.869125
4382.812500	-124.514832
4406.250000	-125.707283
4429.687500	-126.140282
4453.125000	-125.269394
4476.562500	-118.636330
4500.000000	-111.531158
4523.437500	-111.952942
4546.875000	-118.294563
4570.312500	-119.765198
4593.750000	-117.101776
4617.187500	-120.309196
4640.625000	-124.454628
4664.062500	-125.512825
4687.500000	-126.507492
4710.937500	-126.922081
4734.375000	-126.248482
4757.812500	-123.246277
4781.250000	-122.988243
4804.687500	-125.793793
4828.125000	-126.327049
4851.562500	-125.926514
4875.000000	-125.604019
4898.437500	-124.721939
4921.875000	-124.209938
4945.312500	-124.258125
4968.750000	-125.521240
4992.187500	-126.641663
5015.625000	-126.584373
5039.062500	-125.979744
5062.500000	-125.438713
5085.937500	-125.998619
5109.375000	-127.144745
5132.812500	-125.795036
5156.250000	-124.952141
5179.687500	-124.523262
5203.125000	-124.984871
5226.562500	-125.042587
5250.000000	-126.420609
5273.437500	-126.898666
5296.875000	-127.528229
5320.312500	-127.103149
5343.750000	-126.252213
5367.187500	-125.347504
5390.625000	-126.363541
5414.062500	-126.830750
5437.500000	-124.676910
5460.937500	-122.815536
5484.375000	-123.113487
5507.812500	-126.301292
5531.250000	-126.920212
5554.687500	-127.439629
5578.125000	-127.514427
5601.562500	-126.320351
5625.000000	-126.539902
5648.437500	-127.361153
5671.875000	-126.999634
5695.312500	-126.644035
5718.750000	-126.587578
5742.187500	-127.568192
5765.625000	-127.407143
5789.062500	-127.826454
5812.500000	-128.027161
5835.937500	-127.565384
5859.375000	-127.306702
5882.812500	-127.118904
5906.250000	-127.074257
5929.687500	-127.663551
5953.125000	-128.158615
5976.562500	-127.614586
6000.000000	-127.146049
6023.437500	-127.608109
6046.875000	-127.498688
6070.312500	-126.663757
6093.750000	-127.106773
6117.187500	-128.140869
6140.625000	-127.141518
6164.062500	-124.107719
6187.500000	-124.063652
6210.937500	-127.218018
6234.375000	-127.862122
6257.812500	-127.448303
6281.250000	-127.259857
6304.687500	-127.593330
6328.125000	-128.065720
6351.562500	-127.627174
6375.000000	-126.556618
6398.437500	-126.985924
6421.875000	-127.573128
6445.312500	-126.569061
6468.750000	-126.305199
6492.187500	-126.116905
6515.625000	-126.609375
6539.062500	-127.632256
6562.500000	-127.683823
6585.937500	-127.580086
6609.375000	-128.024353
6632.812500	-128.059448
6656.250000	-128.145599
6679.687500	-128.166473
6703.125000	-128.087219
6726.562500	-128.146317
6750.000000	-128.189651
6773.437500	-127.931175
6796.875000	-127.821236
6820.312500	-127.525375
6843.750000	-127.785049
6867.187500	-127.889107
6890.625000	-127.736847
6914.062500	-128.035187
6937.500000	-127.720894
6960.937500	-127.808563
6984.375000	-127.438263
7007.812500	-127.300896
7031.250000	-126.452484
7054.687500	-127.411522
7078.125000	-128.328995
7101.562500	-128.289703
7125.000000	-127.988068
7148.437500	-127.932350
7171.875000	-128.099182
7195.312500	-127.705643
7218.750000	-127.636971
7242.187500	-128.132690
7265.625000	-128.292389
7289.062500	-128.128632
7312.500000	-128.106400
7335.937500	-128.019562
7359.375000	-128.218353
7382.812500	-128.136475
7406.250000	-127.568047
7429.687500	-127.978035
7453.125000	-127.936005
7476.562500	-127.678322
7500.000000	-127.236847
7523.437500	-127.611084
7546.875000	-128.376251
7570.312500	-128.338318
7593.750000	-128.221664
7617.187500	-127.772385
7640.625000	-128.016174
7664.062500	-128.308136
7687.500000	-128.386765
7710.937500	-128.110153
7734.375000	-128.280319
7757.812500	-128.367218
7781.250000	-127.807121
7804.687500	-127.914543
7828.125000	-128.118073
7851.562500	-128.125778
7875.000000	-128.405273
7898.437500	-128.371964
7921.875000	-128.177902
7945.312500	-128.405548
7968.750000	-128.432022
7992.187500	-128.308762
8015.625000	-128.449875
8039.062500	-128.336014
8062.500000	-128.225067
8085.937500	-128.350174
8109.375000	-128.262772
8132.812500	-128.100159
8156.250000	-128.072464
8179.687500	-128.364594
8203.125000	-128.376678
8226.562500	-128.280853
8250.000000	-128.295151
8273.437500	-128.184235
8296.875000	-128.336945
8320.312500	-128.351883
8343.750000	-128.323593
8367.187500	-128.371307
8390.625000	-128.207535
8414.062500	-127.967690
8437.500000	-128.057617
8460.937500	-128.391037
8484.375000	-128.413010
8507.812500	-128.083023
8531.250000	-127.933907
8554.687500	-127.714943
8578.125000	-128.093643
8601.562500	-128.316055
8625.000000	-128.345810
8648.437500	-128.323593
8671.875000	-128.259949
8695.312500	-128.322433
8718.750000	-128.439102
8742.187500	-128.540512
8765.625000	-128.489182
8789.062500	-128.525696
8812.500000	-128.438614
8835.937500	-128.320389
8859.375000	-128.397141
8882.812500	-128.613068
8906.250000	-128.373474
8929.687500	-128.103867
8953.125000	-128.319672
8976.562500	-128.533157
9000.000000	-128.388840
9023.437500	-128.457642
9046.875000	-128.425888
9070.312500	-128.384430
9093.750000	-128.400375
9117.187500	-128.383804
9140.625000	-128.633102
9164.062500	-128.647690
9187.500000	-128.637558
9210.937500	-128.572525
9234.375000	-128.281677
9257.812500	-128.176025
9281.250000	-128.135300
9304.687500	-128.201294
9328.125000	-128.360382
9351.562500	-128.336746
9375.000000	-128.304718
9398.437500	-128.476181
9421.875000	-128.692352
9445.312500	-128.681412
9468.750000	-128.653091
9492.187500	-128.501801
9515.625000	-128.449875
9539.062500	-128.689835
9562.500000	-128.584274
9585.937500	-128.567307
9609.375000	-128.469482
9632.812500	-128.267151
9656.250000	-128.475861
9679.687500	-128.763657
9703.125000	-128.689163
9726.562500	-128.807770
9750.000000	-128.943512
9773.437500	-128.801895
9796.875000	-128.945190
9820.312500	-128.887283
9843.750000	-128.421539
9867.187500	-128.570984
9890.625000	-128.842758
9914.062500	-128.775085
9937.500000	-128.665100
9960.937500	-128.592346
9984.375000	-128.669662
10007.812500	-128.748749
10031.250000	-128.784637
10054.687500	-128.859665
10078.125000	-128.989990
10101.562500	-129.033463
10125.000000	-128.792847
10148.437500	-128.663254
10171.875000	-128.710861
10195.312500	-128.729538
10218.750000	-128.748871
10242.187500	-128.976898
10265.625000	-128.938599
10289.062500	-128.858597
10312.500000	-128.653290
10335.937500	-128.415054
10359.375000	-128.644714
10382.812500	-128.659180
10406.250000	-128.708206
10429.687500	-128.749832
10453.125000	-128.663544
10476.562500	-128.837906
10500.000000	-128.874008
10523.437500	-128.882980
10546.875000	-128.866257
10570.312500	-128.941101
10593.750000	-128.910904
10617.187500	-128.931580
10640.625000	-129.003052
10664.062500	-128.977173
10687.500000	-129.115326
10710.937500	-128.977188
10734.375000	-128.674347
10757.812500	-128.817429
10781.250000	-128.806625
10804.687500	-128.860733
10828.125000	-128.834457
10851.562500	-128.868134
10875.000000	-128.996277
10898.437500	-129.034714
10921.875000	-128.971268
10945.312500	-129.028702
10968.750000	-128.967117
10992.187500	-128.553177
11015.625000	-128.618607
11039.062500	-128.794586
11062.500000	-128.692520
11085.937500	-128.854309
11109.375000	-128.901276
11132.812500	-128.896286
11156.250000	-128.811417
11179.687500	-128.547424
11203.125000	-128.599930
11226.562500	-128.730148
11250.000000	-128.893326
11273.437500	-129.038025
11296.875000	-129.068954
11320.312500	-129.012466
11343.750000	-128.940247
11367.187500	-128.894058
11390.625000	-129.097733
11414.062500	-128.969360
11437.500000	-129.060806
11460.937500	-128.974457
11484.375000	-128.746063
11507.812500	-128.426514
11531.250000	-128.497086
11554.687500	-128.915985
11578.125000	-128.945404
11601.562500	-129.067963
11625.000000	-129.143051
11648.437500	-128.899017
11671.875000	-128.771133
11695.312500	-128.633774
11718.750000	-128.671371
11742.187500	-128.712936
11765.625000	-128.746689
11789.062500	-128.743896
11812.500000	-128.819412
11835.937500	-128.733185
11859.375000	-128.615677
11882.812500	-128.863800
11906.250000	-128.895416
11929.687500	-129.078201
11953.125000	-128.933258
11976.562500	-128.730865
12000.000000	-128.906891
12023.437500	-128.864914
12046.875000	-128.927200
12070.312500	-128.984344
12093.750000	-129.038223
12117.187500	-129.040833
12140.625000	-128.962997
12164.062500	-129.000717
12187.500000	-129.032227
12210.937500	-128.956070
12234.375000	-129.075592
12257.812500	-128.922897
12281.250000	-128.925110
12304.687500	-129.010757
12328.125000	-128.931854
12351.562500	-129.042267
12375.000000	-128.958054
12398.437500	-128.942825
12421.875000	-128.854126
12445.312500	-128.974472
12468.750000	-129.111710
12492.187500	-128.880493
12515.625000	-128.893066
12539.062500	-129.048721
12562.500000	-128.988098
12585.937500	-128.849594
12609.375000	-128.909302
12632.812500	-129.053909
12656.250000	-129.030807
12679.687500	-129.075790
12703.125000	-129.048569
12726.562500	-128.959427
12750.000000	-129.033508
12773.437500	-128.992523
12796.875000	-128.927551
12820.312500	-128.937134
12843.750000	-128.989975
12867.187500	-129.120224
12890.625000	-129.065948
12914.062500	-129.108215
12937.500000	-129.051361
12960.937500	-129.020905
12984.375000	-129.056152
13007.812500	-129.063049
13031.250000	-128.974152
13054.687500	-128.957092
13078.125000	-129.248230
13101.562500	-129.226273
13125.000000	-129.156418
13148.437500	-129.161255
13171.875000	-129.103134
13195.312500	-129.054581
13218.750000	-128.989594
13242.187500	-128.960785
13265.625000	-128.994843
13289.062500	-129.083664
13312.500000	-129.128250
13335.937500	-128.997284
13359.375000	-129.032349
13382.812500	-129.030273
13406.250000	-129.061295
13429.687500	-129.106766
13453.125000	-129.187149
13476.562500	-129.202530
13500.000000	-129.101257
13523.437500	-129.181702
13546.875000	-129.200912
13570.312500	-129.042816
13593.750000	-129.029831
13617.187500	-129.050980
13640.625000	-129.089462
13664.062500	-129.068298
13687.500000	-129.120300
13710.937500	-129.188324
13734.375000	-129.203186
13757.812500	-129.218857
13781.250000	-129.230606
13804.687500	-129.200500
13828.125000	-129.118759
13851.562500	-129.064407
13875.000000	-129.053879
13898.437500	-129.007690
13921.875000	-129.101135
13945.312500	-129.225250
13968.750000	-129.044785
13992.187500	-129.197662
14015.625000	-129.236374
14039.062500	-129.170593
14062.500000	-129.150238
14085.937500	-129.099686
14109.375000	-129.012421
14132.812500	-129.064255
14156.250000	-129.113190
14179.687500	-129.157272
14203.125000	-129.183807
14226.562500	-129.069550
14250.000000	-129.069778
14273.437500	-129.132599
14296.875000	-129.108093
14320.312500	-129.119980
14343.750000	-129.153091
14367.187500	-129.097092
14390.625000	-129.088425
14414.062500	-129.119827
14437.500000	-129.133698
14460.937500	-129.047348
14484.375000	-128.990692
14507.812500	-129.152252
14531.250000	-129.213821
14554.687500	-129.151840
14578.125000	-129.197342
14601.562500	-129.285400
14625.000000	-129.184387
14648.437500	-129.115067
14671.875000	-129.207535
14695.312500	-129.256744
14718.750000	-129.248459
14742.187500	-129.198776
14765.625000	-129.185287
14789.062500	-129.169449
14812.500000	-129.188461
14835.937500	-129.160568
14859.375000	-129.205811
14882.812500	-129.207153
14906.250000	-129.224609
14929.687500	-129.329605
14953.125000	-129.228958
14976.562500	-129.168716
15000.000000	-129.144974
15023.437500	-129.202301
15046.875000	-129.161682
15070.312500	-129.122711
15093.750000	-129.258118
15117.187500	-129.267075
15140.625000	-129.252716
15164.062500	-129.247330
15187.500000	-129.273422
15210.937500	-129.240250
15234.375000	-129.322876
15257.812500	-129.450012
15281.250000	-129.325653
15304.687500	-129.263611
15328.125000	-129.261734
15351.562500	-129.283600
15375.000000	-129.269058
15398.437500	-129.232330
15421.875000	-129.200089
15445.312500	-129.169907
15468.750000	-129.157257
15492.187500	-129.183960
15515.625000	-129.160416
15539.062500	-129.272964
15562.500000	-129.209778
15585.937500	-129.303116
15609.375000	-129.301865
15632.812500	-129.132339
15656.250000	-129.156921
15679.687500	-129.235031
15703.125000	-129.157578
15726.562500	-129.049393
15750.000000	-129.084595
15773.437500	-129.130997
15796.875000	-129.180923
15820.312500	-129.206070
15843.750000	-129.154495
15867.187500	-129.210022
15890.625000	-129.200439
15914.062500	-129.146286
15937.500000	-129.101776
15960.937500	-129.044739
15984.375000	-129.193039
16007.812500	-129.247696
16031.250000	-129.132004
16054.687500	-129.143631
16078.125000	-129.095947
16101.562500	-129.203522
16125.000000	-129.156326
16148.437500	-129.172806
16171.875000	-129.188568
16195.312500	-129.186569
16218.750000	-129.160156
16242.187500	-129.289764
16265.625000	-129.238342
16289.062500	-129.094147
16312.500000	-129.028488
16335.937500	-129.184067
16359.375000	-129.196518
16382.812500	-129.210068
16406.250000	-129.180267
16429.687500	-129.139450
16453.125000	-129.152435
16476.562500	-129.175858
16500.000000	-129.115173
16523.437500	-129.219986
16546.875000	-129.327087
16570.312500	-129.262299
16593.750000	-129.262619
16617.187500	-129.237015
16640.625000	-129.206100
16664.062500	-129.265640
16687.500000	-129.287201
16710.937500	-129.298676
16734.375000	-129.282974
16757.812500	-129.287323
16781.250000	-129.291794
16804.687500	-129.288559
16828.125000	-129.180511
16851.562500	-129.148911
16875.000000	-129.222672
16898.437500	-129.292892
16921.875000	-129.325699
16945.312500	-129.252396
16968.750000	-129.219452
16992.187500	-129.131546
17015.625000	-129.191635
17039.062500	-129.220459
17062.500000	-129.113434
17085.937500	-129.181458
17109.375000	-129.281677
17132.812500	-129.276764
17156.250000	-129.203491
17179.687500	-129.188293
17203.125000	-129.211472
17226.562500	-129.308640
17250.000000	-129.266708
17273.437500	-129.296082
17296.875000	-129.262558
17320.312500	-129.196472
17343.750000	-129.310715
17367.187500	-129.292221
17390.625000	-129.204742
17414.062500	-129.258728
17437.500000	-129.284897
17460.937500	-129.338394
17484.375000	-129.374954
17507.812500	-129.295883
17531.250000	-129.341080
17554.687500	-129.244522
17578.125000	-129.292114
17601.562500	-129.376297
17625.000000	-129.255524
17648.437500	-129.280014
17671.875000	-129.260300
17695.312500	-129.239639
17718.750000	-129.256866
17742.187500	-129.184479
17765.625000	-129.218994
17789.062500	-129.234192
17812.500000	-129.265167
17835.937500	-129.272293
17859.375000	-129.244537
17882.812500	-129.126587
17906.250000	-129.226852
17929.687500	-129.269226
17953.125000	-129.274200
17976.562500	-129.238312
18000.000000	-129.219818
18023.437500	-129.263794
18046.875000	-129.251175
18070.312500	-129.226273
18093.750000	-129.275269
18117.187500	-129.320297
18140.625000	-129.289154
18164.062500	-129.302933
18187.500000	-129.320877
18210.937500	-129.183075
18234.375000	-129.177017
18257.812500	-129.240845
18281.250000	-129.290085
18304.687500	-129.298630
18328.125000	-129.229141
18351.562500	-129.318192
18375.000000	-129.341446
18398.437500	-129.253159
18421.875000	-129.190002
18445.312500	-129.278336
18468.750000	-129.286942
18492.187500	-129.238312
18515.625000	-129.410034
18539.062500	-129.274887
18562.500000	-129.359222
18585.937500	-129.341599
18609.375000	-129.251953
18632.812500	-129.288696
18656.250000	-129.217041
18679.687500	-129.219833
18703.125000	-129.285858
18726.562500	-129.382767
18750.000000	-129.382187
18773.437500	-129.319641
18796.875000	-129.347794
18820.312500	-129.307129
18843.750000	-129.200760
18867.187500	-129.220444
18890.625000	-129.209930
18914.062500	-129.359467
18937.500000	-129.278183
18960.937500	-129.280243
18984.375000	-129.242569
19007.812500	-129.204727
19031.250000	-129.236359
19054.687500	-129.326035
19078.125000	-129.209503
19101.562500	-129.177841
19125.000000	-129.208557
19148.437500	-129.031921
19171.875000	-128.824814
19195.312500	-128.826294
19218.750000	-129.110565
19242.187500	-129.075089
19265.625000	-129.084549
19289.062500	-129.123047
19312.500000	-129.076767
19335.937500	-129.142380
19359.375000	-129.256241
19382.812500	-129.316940
19406.250000	-129.250137
19429.687500	-129.225815
19453.125000	-129.187881
19476.562500	-129.339737
19500.000000	-129.342743
19523.437500	-129.294876
19546.875000	-129.243469
19570.312500	-129.265854
19593.750000	-129.288574
19617.187500	-129.223267
19640.625000	-129.282516
19664.062500	-129.384186
19687.500000	-129.322617
19710.937500	-129.345886
19734.375000	-129.360672
19757.812500	-129.270813
19781.250000	-129.320724
19804.687500	-129.289200
19828.125000	-129.293945
19851.562500	-129.266571
19875.000000	-129.287811
19898.437500	-129.241089
19921.875000	-129.208282
19945.312500	-129.137634
19968.750000	-129.021713
19992.187500	-129.172836
20015.625000	-129.211288
20039.062500	-129.302551
20062.500000	-129.218491
20085.937500	-129.194794
20109.375000	-129.181793
20132.812500	-128.992462
20156.250000	-129.198563
20179.687500	-129.343140
20203.125000	-129.260498
20226.562500	-129.310440
20250.000000	-129.338776
20273.437500	-129.227432
20296.875000	-129.292694
20320.312500	-129.394867
20343.750000	-129.372742
20367.187500	-129.265732
20390.625000	-129.209564
20414.062500	-129.247925
20437.500000	-129.285416
20460.937500	-129.256592
20484.375000	-129.251556
20507.812500	-129.277786
20531.250000	-129.204483
20554.687500	-129.247604
20578.125000	-129.358398
20601.562500	-129.342987
20625.000000	-129.280655
20648.437500	-129.248779
20671.875000	-129.315094
20695.312500	-129.309814
20718.750000	-129.265335
20742.187500	-129.268799
20765.625000	-129.178513
20789.062500	-129.269318
20812.500000	-129.325577
20835.937500	-129.284012
20859.375000	-129.223770
20882.812500	-129.241043
20906.250000	-129.214371
20929.687500	-129.342499
20953.125000	-129.313110
20976.562500	-129.295380
21000.000000	-129.242294
21023.437500	-129.243179
21046.875000	-129.193222
21070.312500	-129.136475
21093.750000	-129.086151
21117.187500	-129.189484
21140.625000	-129.146423
21164.062500	-129.144180
21187.500000	-129.212219
21210.937500	-129.204071
21234.375000	-129.157913
21257.812500	-129.180099
21281.250000	-129.070953
21304.687500	-129.066010
21328.125000	-129.240967
21351.562500	-129.294128
21375.000000	-129.109131
21398.437500	-129.181992
21421.875000	-129.183975
21445.312500	-129.193359
21468.750000	-129.217087
21492.187500	-129.156570
21515.625000	-129.144424
21539.062500	-129.147781
21562.500000	-129.123779
21585.937500	-129.134644
21609.375000	-129.134857
21632.812500	-129.169678
21656.250000	-129.213577
21679.687500	-129.263748
21703.125000	-129.256790
21726.562500	-129.309097
21750.000000	-129.238266
21773.437500	-129.234726
21796.875000	-129.176788
21820.312500	-129.218719
21843.750000	-129.239151
21867.187500	-129.230499
21890.625000	-129.221542
21914.062500	-129.320312
21937.500000	-129.314026
21960.937500	-129.279892
21984.375000	-129.265656
22007.812500	-129.263367
22031.250000	-129.309906
22054.687500	-129.353622
22078.125000	-129.322586
22101.562500	-129.245911
22125.000000	-129.333755
22148.437500	-129.292572
22171.875000	-129.188126
22195.312500	-129.211227
22218.750000	-129.242722
22242.187500	-129.323669
22265.625000	-129.143951
22289.062500	-129.130432
22312.500000	-129.202621
22335.937500	-129.258682
22359.375000	-129.205902
22382.812500	-129.342606
22406.250000	-129.255264
22429.687500	-129.259537
22453.125000	-129.225632
22476.562500	-129.137573
22500.000000	-129.158630
22523.437500	-129.229263
22546.875000	-129.230927
22570.312500	-129.212540
22593.750000	-129.188309
22617.187500	-129.139984
22640.625000	-129.127808
22664.062500	-129.186203
22687.500000	-129.187012
22710.937500	-129.178345
22734.375000	-129.081085
22757.812500	-129.108200
22781.250000	-129.189331
22804.687500	-129.241455
22828.125000	-129.237762
22851.562500	-129.256775
22875.000000	-129.228531
22898.437500	-129.147552
22921.875000	-129.088242
22945.312500	-129.181427
22968.750000	-129.259933
22992.187500	-129.278183
23015.625000	-129.270294
23039.062500	-129.140991
23062.500000	-129.175323
23085.937500	-129.266083
23109.375000	-129.208496
23132.812500	-129.278107
23156.250000	-129.218170
23179.687500	-129.166824
23203.125000	-129.158615
23226.562500	-129.069122
23250.000000	-129.154633
23273.437500	-129.224228
23296.875000	-129.256973
23320.312500	-129.179688
23343.750000	-129.185867
23367.187500	-129.273819
23390.625000	-129.231400
23414.062500	-129.160660
23437.500000	-129.150223
23460.937500	-129.188736
23484.375000	-129.126160
23507.812500	-129.164322
23531.250000	-129.236649
23554.687500	-129.300491
23578.125000	-129.328461
23601.562500	-129.232697
23625.000000	-129.260849
23648.437500	-129.227493
23671.875000	-129.202789
23695.312500	-129.374756
23718.750000	-129.268173
23742.187500	-129.197021
23765.625000	-129.295975
23789.062500	-129.283264
23812.500000	-129.134109
23835.937500	-129.136261
23859.375000	-129.203568
23882.812500	-129.176361
23906.250000	-129.252319
23929.687500	-129.324677
23953.125000	-129.262009
23976.562500	-129.280731
24000.000000	-129.112686
24023.437500	-129.085556
24046.875000	-129.124893
24070.312500	-129.125992
24093.750000	-129.248444
24117.187500	-129.261566
24140.625000	-129.273346
24164.062500	-129.270981
24187.500000	-129.329147
24210.937500	-129.334900
24234.375000	-129.237000
24257.812500	-129.187729
24281.250000	-129.125168
24304.687500	-129.049225
24328.125000	-129.155899
24351.562500	-129.148300
24375.000000	-129.115860
24398.437500	-129.134476
24421.875000	-129.126556
24445.312500	-129.192307
24468.750000	-129.310455
24492.187500	-129.313263
24515.625000	-129.261032
24539.062500	-129.210999
24562.500000	-129.198120
24585.937500	-129.193054
24609.375000	-129.216537
24632.812500	-129.075027
24656.250000	-129.056992
24679.687500	-129.252472
24703.125000	-129.313599
24726.562500	-129.267273
24750.000000	-129.151413
24773.437500	-129.197540
24796.875000	-129.193130
24820.312500	-129.118256
24843.750000	-129.214432
24867.187500	-129.283936
24890.625000	-129.269211
24914.062500	-129.128281
24937.500000	-129.101425
24960.937500	-129.138000
24984.375000	-129.193695
25007.812500	-129.181473
25031.250000	-129.258987
25054.687500	-129.139297
25078.125000	-129.182419
25101.562500	-129.265656
25125.000000	-129.214767
25148.437500	-129.175415
25171.875000	-129.169205
25195.312500	-129.123917
25218.750000	-129.081467
25242.187500	-129.196182
25265.625000	-129.196518
25289.062500	-129.178574
25312.500000	-129.208450
25335.937500	-129.156982
25359.375000	-129.188126
25382.812500	-129.245178
25406.250000	-129.279648
25429.687500	-129.130951
25453.125000	-129.036911
25476.562500	-129.124680
25500.000000	-129.238678
25523.437500	-129.210541
25546.875000	-129.172806
25570.312500	-129.163254
25593.750000	-129.171310
25617.187500	-129.202454
25640.625000	-129.243851
25664.062500	-129.265167
25687.500000	-129.264801
25710.937500	-129.275482
25734.375000	-129.179108
25757.812500	-129.084076
25781.250000	-129.134598
25804.687500	-129.154663
25828.125000	-129.158432
25851.562500	-129.131195
25875.000000	-129.086349
25898.437500	-129.120102
25921.875000	-129.152817
25945.312500	-129.129257
25968.750000	-129.196609
25992.187500	-129.133972
26015.625000	-129.124847
26039.062500	-129.158829
26062.500000	-129.186111
26085.937500	-129.191208
26109.375000	-129.128387
26132.812500	-129.066177
26156.250000	-129.180603
26179.687500	-129.277374
26203.125000	-129.154236
26226.562500	-129.158859
26250.000000	-129.171524
26273.437500	-129.102005
26296.875000	-129.126663
26320.312500	-129.161346
26343.750000	-129.154694
26367.187500	-129.111374
26390.625000	-129.097549
26414.062500	-129.143494
26437.500000	-129.251556
26460.937500	-129.159882
26484.375000	-129.180756
26507.812500	-129.203003
26531.250000	-129.221146
26554.687500	-129.169022
26578.125000	-129.145630
26601.562500	-129.135803
26625.000000	-129.130386
26648.437500	-129.122971
26671.875000	-129.141907
26695.312500	-129.263733
26718.750000	-129.276459
26742.187500	-129.129013
26765.625000	-129.171127
26789.062500	-129.245132
26812.500000	-129.236374
26835.937500	-129.214294
26859.375000	-129.146942
26882.812500	-129.084991
26906.250000	-129.151535
26929.687500	-129.265289
26953.125000	-129.265900
26976.562500	-129.183243
27000.000000	-129.085190
27023.437500	-129.136322
27046.875000	-129.127808
27070.312500	-129.212082
27093.750000	-129.172516
27117.187500	-129.024307
27140.625000	-129.091507
27164.062500	-129.106110
27187.500000	-129.109741
27210.937500	-129.075058
27234.375000	-128.967850
27257.812500	-128.980270
27281.250000	-129.102020
27304.687500	-129.116623
27328.125000	-129.186386
27351.562500	-129.142471
27375.000000	-129.146439
27398.437500	-129.095016
27421.875000	-129.072784
27445.312500	-129.179047
27468.750000	-129.139801
27492.187500	-129.189423
27515.625000	-129.219727
27539.062500	-129.219604
27562.500000	-129.203064
27585.937500	-129.143539
27609.375000	-129.123932
27632.812500	-129.126709
27656.250000	-129.175568
27679.687500	-129.182709
27703.125000	-129.157944
27726.562500	-129.207352
27750.000000	-129.180298
27773.437500	-129.105011
27796.875000	-129.071518
27820.312500	-129.017822
27843.750000	-129.040482
27867.187500	-129.122253
27890.625000	-129.138641
27914.062500	-129.103775
27937.500000	-129.024353
27960.937500	-129.005035
27984.375000	-129.103729
28007.812500	-129.168823
28031.250000	-129.169220
28054.687500	-129.178146
28078.125000	-129.156799
28101.562500	-129.048798
28125.000000	-129.030777
28148.437500	-129.079224
28171.875000	-129.086395
28195.312500	-129.164825
28218.750000	-129.185410
28242.187500	-129.139343
28265.625000	-129.156540
28289.062500	-129.246811
28312.500000	-129.226425
28335.937500	-129.096130
28359.375000	-129.153397
28382.812500	-129.197678
28406.250000	-129.179153
28429.687500	-129.082153
28453.125000	-129.187469
28476.562500	-129.234558
28500.000000	-129.222275
28523.437500	-129.336212
28546.875000	-129.229523
28570.312500	-129.249756
28593.750000	-129.223450
28617.187500	-129.095398
28640.625000	-129.187729
28664.062500	-129.192657
28687.500000	-129.130371
28710.937500	-129.116669
28734.375000	-129.162720
28757.812500	-129.187271
28781.250000	-129.190186
28804.687500	-129.159042
28828.125000	-129.109161
28851.562500	-129.135132
28875.000000	-129.163498
28898.437500	-129.233109
28921.875000	-129.233917
28945.312500	-129.229416
28968.750000	-129.231659
28992.187500	-129.109558
29015.625000	-129.198746
29039.062500	-129.266632
29062.500000	-129.162643
29085.937500	-129.171478
29109.375000	-129.140732
29132.812500	-129.049850
29156.250000	-129.099380
29179.687500	-129.070145
29203.125000	-129.088837
29226.562500	-129.129181
29250.000000	-129.131317
29273.437500	-129.126663
29296.875000	-129.160812
29320.312500	-129.195023
29343.750000	-129.174942
29367.187500	-129.179764
29390.625000	-129.164291
29414.062500	-129.153854
29437.500000	-129.044464
29460.937500	-129.114395
29484.375000	-129.105576
29507.812500	-129.099976
29531.250000	-129.166199
29554.687500	-129.164352
29578.125000	-129.193542
29601.562500	-129.147415
29625.000000	-129.125793
29648.437500	-129.175003
29671.875000	-129.124924
29695.312500	-129.023697
29718.750000	-128.968414
29742.187500	-129.019714
29765.625000	-129.072357
29789.062500	-129.138138
29812.500000	-129.110947
29835.937500	-129.146255
29859.375000	-129.060303
29882.812500	-129.021149
29906.250000	-129.125153
29929.687500	-129.117111
29953.125000	-129.120331
29976.562500	-129.007919
30000.000000	-128.959000
30023.437500	-129.096878
30046.875000	-129.117584
30070.312500	-129.054276
30093.750000	-129.025131
30117.187500	-129.088623
30140.625000	-129.057602
30164.062500	-129.045181
30187.500000	-129.100433
30210.937500	-129.105118
30234.375000	-129.151672
30257.812500	-129.227966
30281.250000	-129.125702
30304.687500	-129.141190
30328.125000	-129.154831
30351.562500	-129.105896
30375.000000	-129.026154
30398.437500	-129.020172
30421.875000	-129.046753
30445.312500	-129.046280
30468.750000	-129.097931
30492.187500	-129.173248
30515.625000	-129.039734
30539.062500	-128.980545
30562.500000	-129.090469
30585.937500	-129.093292
30609.375000	-129.097321
30632.812500	-129.109055
30656.250000	-129.150894
30679.687500	-129.029129
30703.125000	-128.986938
30726.562500	-128.974197
30750.000000	-129.010422
30773.437500	-129.029709
30796.875000	-129.085281
30820.312500	-129.180847
30843.750000	-129.163818
30867.187500	-129.133759
30890.625000	-129.114487
30914.062500	-129.060486
30937.500000	-129.072479
30960.937500	-129.051666
30984.375000	-129.022659
31007.812500	-129.056870
31031.250000	-129.014587
31054.687500	-129.106018
31078.125000	-129.131790
31101.562500	-129.052155
31125.000000	-129.013214
31148.437500	-128.989151
31171.875000	-129.096130
31195.312500	-129.090668
31218.750000	-129.105042
31242.187500	-129.174225
31265.625000	-129.143417
31289.062500	-129.057373
31312.500000	-129.036530
31335.937500	-128.955078
31359.375000	-129.005417
31382.812500	-129.054840
31406.250000	-129.069611
31429.687500	-128.920837
31453.125000	-129.036209
31476.562500	-129.127258
31500.000000	-129.059845
31523.437500	-129.114975
31546.875000	-129.064392
31570.312500	-129.139557
31593.750000	-129.098404
31617.187500	-129.045486
31640.625000	-129.060577
31664.062500	-129.078781
31687.500000	-129.041626
31710.937500	-129.123703
31734.375000	-129.159576
31757.812500	-129.187912
31781.250000	-129.095947
31804.687500	-129.056931
31828.125000	-129.017654
31851.562500	-129.049454
31875.000000	-129.122070
31898.437500	-129.039581
31921.875000	-129.138214
31945.312500	-129.119705
31968.750000	-129.100494
31992.187500	-129.097992
32015.625000	-129.087952
32039.062500	-129.139725
32062.500000	-129.145828
32085.937500	-129.164169
32109.375000	-129.034576
32132.812500	-129.022064
32156.250000	-129.061447
32179.687500	-129.156082
32203.125000	-129.182388
32226.562500	-129.092529
32250.000000	-129.086121
32273.437500	-129.081436
32296.875000	-129.044220
32320.312500	-129.112427
32343.750000	-129.081894
32367.187500	-129.088684
32390.625000	-129.107376
32414.062500	-129.091461
32437.500000	-129.053787
32460.937500	-129.087952
32484.375000	-128.977722
32507.812500	-128.902542
32531.250000	-129.059998
32554.687500	-129.034653
32578.125000	-128.985840
32601.562500	-129.001266
32625.000000	-128.934296
32648.437500	-129.013474
32671.875000	-129.117935
32695.312500	-129.044739
32718.750000	-129.076645
32742.187500	-129.084274
32765.625000	-129.092651
32789.062500	-129.074905
32812.500000	-129.084137
32835.937500	-129.067566
32859.375000	-129.052094
32882.812500	-129.050629
32906.250000	-129.025421
32929.687500	-129.111160
32953.125000	-129.093964
32976.562500	-128.989090
33000.000000	-128.978561
33023.437500	-129.016174
33046.875000	-128.953476
33070.312500	-128.959305
33093.750000	-128.976913
33117.187500	-128.978424
33140.625000	-129.029022
33164.062500	-129.030228
33187.500000	-129.029709
33210.937500	-129.076721
33234.375000	-128.991043
33257.812500	-129.031219
33281.250000	-129.147659
33304.687500	-129.072937
33328.125000	-128.971146
33351.562500	-129.027664
33375.000000	-129.113983
33398.437500	-128.981689
33421.875000	-128.993591
33445.312500	-129.079910
33468.750000	-129.124664
33492.187500	-129.124466
33515.625000	-129.162064
33539.062500	-129.187363
33562.500000	-129.110672
33585.937500	-129.025024
33609.375000	-129.126358
33632.812500	-129.011383
33656.250000	-128.926819
33679.687500	-128.899017
33703.125000	-128.900238
33726.562500	-128.944885
33750.000000	-128.839783
33773.437500	-128.902603
33796.875000	-129.090195
33820.312500	-129.068848
33843.750000	-129.021255
33867.187500	-129.036072
33890.625000	-129.003021
33914.062500	-128.979797
33937.500000	-129.042206
33960.937500	-129.149109
33984.375000	-129.084946
34007.812500	-129.043152
34031.250000	-129.022385
34054.687500	-129.105057
34078.125000	-129.168732
34101.562500	-128.961075
34125.000000	-128.959549
34148.437500	-128.944626
34171.875000	-128.989807
34195.312500	-129.142761
34218.750000	-129.095932
34242.187500	-129.048828
34265.625000	-129.107788
34289.062500	-129.073563
34312.500000	-128.992737
34335.937500	-128.984970
34359.375000	-128.990707
34382.812500	-129.024460
34406.250000	-129.002533
34429.687500	-128.944946
34453.125000	-128.953583
34476.562500	-129.022949
34500.000000	-128.919113
34523.437500	-128.897415
34546.875000	-129.027435
34570.312500	-129.051727
34593.750000	-129.067551
34617.187500	-128.976913
34640.625000	-128.982437
34664.062500	-128.978271
34687.500000	-129.096466
34710.937500	-129.026932
34734.375000	-128.944397
34757.812500	-128.998718
34781.250000	-128.945236
34804.687500	-128.888748
34828.125000	-128.965179
34851.562500	-129.029114
34875.000000	-129.029831
34898.437500	-129.056351
34921.875000	-128.930496
34945.312500	-128.812897
34968.750000	-128.977737
34992.187500	-129.120728
35015.625000	-129.115326
35039.062500	-129.022141
35062.500000	-128.969009
35085.937500	-129.072296
35109.375000	-129.043976
35132.812500	-128.975433
35156.250000	-128.973663
35179.687500	-128.973312
35203.125000	-128.939880
35226.562500	-129.002274
35250.000000	-128.951340
35273.437500	-128.944473
35296.875000	-128.977448
35320.312500	-128.917862
35343.750000	-128.887375
35367.187500	-128.913712
35390.625000	-128.980988
35414.062500	-129.014877
35437.500000	-128.991531
35460.937500	-128.897278
35484.375000	-128.973541
35507.812500	-129.007706
35531.250000	-129.063354
35554.687500	-129.062637
35578.125000	-129.016785
35601.562500	-128.935898
35625.000000	-129.044983
35648.437500	-129.044327
35671.875000	-128.944000
35695.312500	-129.023987
35718.750000	-129.013977
35742.187500	-128.987869
35765.625000	-128.975418
35789.062500	-128.980011
35812.500000	-129.005554
35835.937500	-128.973297
35859.375000	-129.042526
35882.812500	-128.946747
35906.250000	-128.888504
35929.687500	-128.881439
35953.125000	-129.004395
35976.562500	-129.029999
36000.000000	-128.971573
36023.437500	-128.969818
36046.875000	-128.873672
36070.312500	-128.921646
36093.750000	-128.989502
36117.187500	-129.079178
36140.625000	-128.981079
36164.062500	-128.977585
36187.500000	-128.973129
36210.937500	-128.947952
36234.375000	-128.913544
36257.812500	-128.854202
36281.250000	-128.847412
36304.687500	-128.998383
36328.125000	-128.992462
36351.562500	-129.011047
36375.000000	-129.036911
36398.437500	-129.005447
36421.875000	-129.057465
36445.312500	-128.931900
36468.750000	-128.935532
36492.187500	-128.924759
36515.625000	-128.776016
36539.062500	-128.803818
36562.500000	-128.867798
36585.937500	-128.822861
36609.375000	-128.940033
36632.812500	-128.956299
36656.250000	-128.936218
36679.687500	-128.932129
36703.125000	-128.960480
36726.562500	-128.978760
36750.000000	-128.993073
36773.437500	-128.955231
36796.875000	-128.978317
36820.312500	-129.005737
36843.750000	-128.997787
36867.187500	-128.987228
36890.625000	-128.948074
36914.062500	-128.930237
36937.500000	-128.928177
36960.937500	-128.922577
36984.375000	-129.003693
37007.812500	-129.003555
37031.250000	-128.935745
37054.687500	-128.834763
37078.125000	-128.861145
37101.562500	-128.960510
37125.000000	-128.865341
37148.437500	-128.965698
37171.875000	-128.923767
37195.312500	-128.856613
37218.750000	-128.920197
37242.187500	-128.863739
37265.625000	-128.952698
37289.062500	-128.970245
37312.500000	-128.974670
37335.937500	-128.958084
37359.375000	-128.956970
37382.812500	-128.983521
37406.250000	-129.014160
37429.687500	-128.892029
37453.125000	-128.864258
37476.562500	-128.870804
37500.000000	-128.913101
37523.437500	-128.886703
37546.875000	-128.974213
37570.312500	-129.014557
37593.750000	-128.960785
37617.187500	-128.921097
37640.625000	-128.832184
37664.062500	-128.916061
37687.500000	-128.956253
37710.937500	-128.965607
37734.375000	-128.951553
37757.812500	-128.961060
37781.250000	-128.894043
37804.687500	-128.851471
37828.125000	-128.869476
37851.562500	-128.916382
37875.000000	-128.908340
37898.437500	-128.873184
37921.875000	-128.861923
37945.312500	-128.733276
37968.750000	-128.742630
37992.187500	-128.908752
38015.625000	-129.063828
38039.062500	-128.985855
38062.500000	-128.908722
38085.937500	-128.956680
38109.375000	-128.987930
38132.812500	-128.946487
38156.250000	-128.929382
38179.687500	-128.825714
38203.125000	-128.861084
38226.562500	-128.956558
38250.000000	-128.870804
38273.437500	-128.862579
38296.875000	-128.893890
38320.312500	-128.895218
38343.750000	-128.815598
38367.187500	-128.889572
38390.625000	-128.864258
38414.062500	-128.856796
38437.500000	-128.834396
38460.937500	-128.815491
38484.375000	-128.818008
38507.812500	-128.860260
38531.250000	-128.873032
38554.687500	-128.856262
38578.125000	-128.972183
38601.562500	-128.982895
38625.000000	-128.888718
38648.437500	-128.845596
38671.875000	-128.893463
38695.312500	-128.947830
38718.750000	-128.978119
38742.187500	-128.900421
38765.625000	-128.850220
38789.062500	-128.934067
38812.500000	-128.891006
38835.937500	-128.908936
38859.375000	-128.850845
38882.812500	-128.837540
38906.250000	-128.884933
38929.687500	-128.834030
38953.125000	-128.879486
38976.562500	-128.867538
39000.000000	-128.835434
39023.437500	-128.825790
39046.875000	-128.868027
39070.312500	-128.839203
39093.750000	-128.937317
39117.187500	-128.866730
39140.625000	-128.859680
39164.062500	-128.834869
39187.500000	-128.803650
39210.937500	-128.856293
39234.375000	-128.907745
39257.812500	-128.849457
39281.250000	-128.817184
39304.687500	-128.860214
39328.125000	-128.909744
39351.562500	-128.847458
39375.000000	-128.907349
39398.437500	-128.897446
39421.875000	-129.002441
39445.312500	-128.909790
39468.750000	-128.904144
39492.187500	-128.959030
39515.625000	-128.822144
39539.062500	-128.823227
39562.500000	-128.841965
39585.937500	-128.896866
39609.375000	-128.914200
39632.812500	-128.802551
39656.250000	-128.836472
39679.687500	-128.941177
39703.125000	-128.914597
39726.562500	-128.859879
39750.000000	-128.913422
39773.437500	-128.909592
39796.875000	-128.911331
39820.312500	-128.917511
39843.750000	-128.884491
39867.187500	-128.775848
39890.625000	-128.877502
39914.062500	-128.741776
39937.500000	-128.729599
39960.937500	-128.912018
39984.375000	-128.950775
40007.812500	-128.913376
40031.250000	-128.848816
40054.687500	-128.907242
40078.125000	-128.820114
40101.562500	-128.807831
40125.000000	-128.903854
40148.437500	-128.885513
40171.875000	-128.863708
40195.312500	-128.812653
40218.750000	-128.887070
40242.187500	-128.810837
40265.625000	-128.720428
40289.062500	-128.810638
40312.500000	-128.783386
40335.937500	-128.770737
40359.375000	-128.828812
40382.812500	-128.836868
40406.250000	-128.860840
40429.687500	-128.829391
40453.125000	-128.757797
40476.562500	-128.805618
40500.000000	-128.819077
40523.437500	-128.829285
40546.875000	-128.840729
40570.312500	-128.859421
40593.750000	-128.898148
40617.187500	-128.918335
40640.625000	-128.842529
40664.062500	-128.921616
40687.500000	-128.917221
40710.937500	-128.878052
40734.375000	-128.891281
40757.812500	-128.849930
40781.250000	-128.867477
40804.687500	-128.783035
40828.125000	-128.891708
40851.562500	-128.913467
40875.000000	-128.907181
40898.437500	-128.878540
40921.875000	-128.882065
40945.312500	-128.925537
40968.750000	-128.903107
40992.187500	-128.870850
41015.625000	-129.014160
41039.062500	-129.030167
41062.500000	-129.020660
41085.937500	-128.888535
41109.375000	-128.811600
41132.812500	-128.782410
41156.250000	-128.959198
41179.687500	-128.921234
41203.125000	-128.942535
41226.562500	-128.922226
41250.000000	-128.804794
41273.437500	-128.840088
41296.875000	-129.004440
41320.312500	-129.032761
41343.750000	-128.973892
41367.187500	-128.846741
41390.625000	-128.952072
41414.062500	-128.960846
41437.500000	-128.840576
41460.937500	-128.896210
41484.375000	-128.850769
41507.812500	-128.849411
41531.250000	-128.938034
41554.687500	-128.968979
41578.125000	-128.914825
41601.562500	-128.919922
41625.000000	-128.965454
41648.437500	-128.893768
41671.875000	-128.962234
41695.312500	-129.057541
41718.750000	-129.045471
41742.187500	-129.023621
41765.625000	-129.019943
41789.062500	-128.965012
41812.500000	-128.793442
41835.937500	-128.763916
41859.375000	-128.882584
41882.812500	-128.917313
41906.250000	-128.999039
41929.687500	-129.009003
41953.125000	-128.946686
41976.562500	-129.047714
42000.000000	-129.059219
42023.437500	-128.983566
42046.875000	-129.023529
42070.312500	-129.070816
42093.750000	-129.032700
42117.187500	-128.920761
42140.625000	-128.958069
42164.062500	-129.023163
42187.500000	-129.094482
42210.937500	-128.998520
42234.375000	-129.056534
42257.812500	-129.133408
42281.250000	-129.161942
42304.687500	-129.037918
42328.125000	-129.095673
42351.562500	-129.065765
42375.000000	-129.084549
42398.437500	-129.154312
42421.875000	-129.079315
42445.312500	-129.090286
42468.750000	-129.153732
42492.187500	-129.121613
42515.625000	-129.066528
42539.062500	-129.052704
42562.500000	-129.129471
42585.937500	-129.163879
42609.375000	-129.193665
42632.812500	-129.224136
42656.250000	-129.241135
42679.687500	-129.182175
42703.125000	-129.043793
42726.562500	-129.122375
42750.000000	-129.234222
42773.437500	-129.200333
42796.875000	-129.198471
42820.312500	-129.207031
42843.750000	-129.165756
42867.187500	-129.202774
42890.625000	-129.065048
42914.062500	-129.054550
42937.500000	-129.159698
42960.937500	-129.196594
42984.375000	-129.314545
43007.812500	-129.240250
43031.250000	-129.155914
43054.687500	-129.263474
43078.125000	-129.215393
43101.562500	-129.206604
43125.000000	-129.317780
43148.437500	-129.251663
43171.875000	-129.238998
43195.312500	-129.192245
43218.750000	-129.216064
43242.187500	-129.246155
43265.625000	-129.239105
43289.062500	-129.166397
43312.500000	-129.281403
43335.937500	-129.294205
43359.375000	-129.205475
43382.812500	-129.364822
43406.250000	-129.367294
43429.687500	-129.317291
43453.125000	-129.270065
43476.562500	-129.334503
43500.000000	-129.270737
43523.437500	-129.246780
43546.875000	-129.373917
43570.312500	-129.374893
43593.750000	-129.393021
43617.187500	-129.367599
43640.625000	-129.436874
43664.062500	-129.486969
43687.500000	-129.419876
43710.937500	-129.481644
43734.375000	-129.536530
43757.812500	-129.482635
43781.250000	-129.492706
43804.687500	-129.553986
43828.125000	-129.545364
43851.562500	-129.453339
43875.000000	-129.406952
43898.437500	-129.453812
43921.875000	-129.477158
43945.312500	-129.432175
43968.750000	-129.402466
43992.187500	-129.492386
44015.625000	-129.576828
44039.062500	-129.624878
44062.500000	-129.536285
44085.937500	-129.626785
44109.375000	-129.647858
44132.812500	-129.653931
44156.250000	-129.635849
44179.687500	-129.607285
44203.125000	-129.598770
44226.562500	-129.618195
44250.000000	-129.575623
44273.437500	-129.616974
44296.875000	-129.596725
44320.312500	-129.640549
44343.750000	-129.782669
44367.187500	-129.757492
44390.625000	-129.623825
44414.062500	-129.655396
44437.500000	-129.809799
44460.937500	-129.704773
44484.375000	-129.780807
44507.812500	-129.954285
44531.250000	-129.821594
44554.687500	-129.842697
44578.125000	-129.812256
44601.562500	-129.807312
44625.000000	-129.937759
44648.437500	-129.977829
44671.875000	-129.863251
44695.312500	-129.922485
44718.750000	-129.989761
44742.187500	-129.962219
44765.625000	-129.973877
44789.062500	-129.946960
44812.500000	-129.927444
44835.937500	-129.924454
44859.375000	-129.931458
44882.812500	-129.972244
44906.250000	-130.034256
44929.687500	-129.957016
44953.125000	-129.981033
44976.562500	-130.053955
45000.000000	-130.121017
45023.437500	-130.107437
45046.875000	-130.014725
45070.312500	-130.111145
45093.750000	-130.128113
45117.187500	-130.153564
45140.625000	-130.199707
45164.062500	-130.218796
45187.500000	-130.138245
45210.937500	-130.174423
45234.375000	-130.278503
45257.812500	-130.252045
45281.250000	-130.237671
45304.687500	-130.180908
45328.125000	-130.257431
45351.562500	-130.265396
45375.000000	-130.258194
45398.437500	-130.261307
45421.875000	-130.268921
45445.312500	-130.386612
45468.750000	-130.406174
45492.187500	-130.354141
45515.625000	-130.334122
45539.062500	-130.345673
45562.500000	-130.461594
45585.937500	-130.545898
45609.375000	-130.354279
45632.812500	-130.357452
45656.250000	-130.400986
45679.687500	-130.439026
45703.125000	-130.389404
45726.562500	-130.411972
45750.000000	-130.503754
45773.437500	-130.504776
45796.875000	-130.486984
45820.312500	-130.496552
45843.750000	-130.461227
45867.187500	-130.540390
45890.625000	-130.718124
45914.062500	-130.625290
45937.500000	-130.587616
45960.937500	-130.550461
45984.375000	-130.623062
46007.812500	-130.518234
46031.250000	-130.514999
46054.687500	-130.655060
46078.125000	-130.662918
46101.562500	-130.786682
46125.000000	-130.726349
46148.437500	-130.719254
46171.875000	-130.768829
46195.312500	-130.851364
46218.750000	-130.819229
46242.187500	-130.739914
46265.625000	-130.733139
46289.062500	-130.762985
46312.500000	-130.718185
46335.937500	-130.816391
46359.375000	-130.731018
46382.812500	-130.782425
46406.250000	-130.843658
46429.687500	-130.938171
46453.125000	-130.988144
46476.562500	-130.878952
46500.000000	-130.904160
46523.437500	-130.951355
46546.875000	-130.917526
46570.312500	-130.887863
46593.750000	-130.946152
46617.187500	-130.867065
46640.625000	-130.879837
46664.062500	-130.889053
46687.500000	-131.028610
46710.937500	-131.052002
46734.375000	-131.062851
46757.812500	-131.105240
46781.250000	-131.057907
46804.687500	-131.050247
46828.125000	-131.121216
46851.562500	-131.110825
46875.000000	-131.014313
46898.437500	-131.050400
46921.875000	-131.016357
46945.312500	-131.033188
46968.750000	-131.159866
46992.187500	-131.181839
47015.625000	-131.266068
47039.062500	-131.188187
47062.500000	-131.203156
47085.937500	-131.302429
47109.375000	-131.201355
47132.812500	-131.203384
47156.250000	-131.154236
47179.687500	-131.217621
47203.125000	-131.218170
47226.562500	-131.146729
47250.000000	-131.135681
47273.437500	-131.267487
47296.875000	-131.291901
47320.312500	-131.157410
47343.750000	-131.177032
47367.187500	-131.240356
47390.625000	-131.190582
47414.062500	-131.254883
47437.500000	-131.175369
47460.937500	-131.217712
47484.375000	-131.261597
47507.812500	-131.372528
47531.250000	-131.365356
47554.687500	-131.375717
47578.125000	-131.369919
47601.562500	-131.290039
47625.000000	-131.283630
47648.437500	-131.295990
47671.875000	-131.348236
47695.312500	-131.344299
47718.750000	-131.325729
47742.187500	-131.267624
47765.625000	-131.293625
47789.062500	-131.349106
47812.500000	-131.321777
47835.937500	-131.266006
47859.375000	-131.285919
47882.812500	-131.354401
47906.250000	-131.475372
47929.687500	-131.437302
47953.125000	-131.348511
47976.562500	-131.395111
