주파수 (Hz)	레벨 (dB)
23.437500	-87.055321
46.875000	-71.948143
70.312500	-59.304749
93.750000	-54.135048
117.187500	-53.373589
140.625000	-54.130165
164.062500	-55.543045
187.500000	-52.627239
210.937500	-48.196304
234.375000	-45.950672
257.812500	-48.160160
281.250000	-49.324013
304.687500	-51.365234
328.125000	-49.781200
351.562500	-46.821842
375.000000	-47.528111
398.437500	-45.122063
421.875000	-45.091518
445.312500	-49.101463
468.750000	-47.770573
492.187500	-52.097603
515.625000	-50.708099
539.062500	-50.232616
562.500000	-50.999325
585.937500	-49.055107
609.375000	-48.440525
632.812500	-48.455967
656.250000	-55.926071
679.687500	-56.443916
703.125000	-52.855816
726.562500	-56.408607
750.000000	-59.877941
773.437500	-56.672203
796.875000	-56.091709
820.312500	-56.899502
843.750000	-57.326897
867.187500	-62.606850
890.625000	-62.703312
914.062500	-61.078171
937.500000	-56.614124
960.937500	-58.676010
984.375000	-55.677521
1007.812500	-58.950722
1031.250000	-58.233486
1054.687500	-54.567387
1078.125000	-60.473156
1101.562500	-61.444031
1125.000000	-62.484863
1148.437500	-66.162132
1171.875000	-60.292976
1195.312500	-61.851704
1218.750000	-62.015518
1242.187500	-59.355186
1265.625000	-62.235226
1289.062500	-69.399818
1312.500000	-66.083961
1335.937500	-66.622581
1359.375000	-67.642357
1382.812500	-61.770313
1406.250000	-59.768810
1429.687500	-63.938320
1453.125000	-67.541725
1476.562500	-67.042000
1500.000000	-69.076469
1523.437500	-71.832024
1546.875000	-66.757614
1570.312500	-59.174488
1593.750000	-59.725868
1617.187500	-67.217735
1640.625000	-66.315819
1664.062500	-62.897640
1687.500000	-62.946213
1710.937500	-72.271500
1734.375000	-71.021591
1757.812500	-64.491257
1781.250000	-65.798538
1804.687500	-73.021408
1828.125000	-75.548668
1851.562500	-68.929619
1875.000000	-63.261017
1898.437500	-66.156593
1921.875000	-74.250389
1945.312500	-74.251831
1968.750000	-70.882729
1992.187500	-70.815323
2015.625000	-76.108139
2039.062500	-80.656952
2062.500000	-77.323990
2085.937500	-72.775124
2109.375000	-67.822365
2132.812500	-69.324730
2156.250000	-78.893204
2179.687500	-80.201553
2203.125000	-76.786697
2226.562500	-74.198425
2250.000000	-74.390076
2273.437500	-80.221581
2296.875000	-80.952263
2320.312500	-78.372734
2343.750000	-74.442551
2367.187500	-70.145432
2390.625000	-71.553032
2414.062500	-78.849281
2437.500000	-80.620628
2460.937500	-82.056633
2484.375000	-79.879593
2507.812500	-75.918419
2531.250000	-74.582863
2554.687500	-81.506752
2578.125000	-86.329430
2601.562500	-83.626038
2625.000000	-82.412720
2648.437500	-78.632103
2671.875000	-77.553696
2695.312500	-81.802147
2718.750000	-85.935677
2742.187500	-81.954834
2765.625000	-80.102661
2789.062500	-78.618721
2812.500000	-74.544571
2835.937500	-72.133629
2859.375000	-76.262291
2882.812500	-82.837563
2906.250000	-84.583778
2929.687500	-81.880501
2953.125000	-74.359917
2976.562500	-74.508369
3000.000000	-77.612274
3023.437500	-80.695488
3046.875000	-85.951607
3070.312500	-88.038467
3093.750000	-82.216904
3117.187500	-84.227982
3140.625000	-82.984169
3164.062500	-79.211121
3187.500000	-74.643532
3210.937500	-72.983536
3234.375000	-79.554283
3257.812500	-90.934242
3281.250000	-90.449623
3304.687500	-83.447998
3328.125000	-75.420128
3351.562500	-77.509254
3375.000000	-84.707512
3398.437500	-81.795761
3421.875000	-83.375740
3445.312500	-90.439499
3468.750000	-92.863274
3492.187500	-89.656464
3515.625000	-90.416389
3539.062500	-86.644951
3562.500000	-82.076180
3585.937500	-82.249756
3609.375000	-80.854813
3632.812500	-82.075455
3656.250000	-89.167252
3679.687500	-91.460236
3703.125000	-90.427818
3726.562500	-94.425583
3750.000000	-89.195244
3773.437500	-87.424667
3796.875000	-87.526039
3820.312500	-80.684036
3843.750000	-81.242004
3867.187500	-86.907867
3890.625000	-96.265678
3914.062500	-99.076927
3937.500000	-99.145020
3960.937500	-95.324242
3984.375000	-89.267128
4007.812500	-89.487869
4031.250000	-94.915535
4054.687500	-94.929947
4078.125000	-93.213470
4101.562500	-95.298477
4125.000000	-99.811050
4148.437500	-97.466904
4171.875000	-92.094727
4195.312500	-90.978203
4218.750000	-93.910149
4242.187500	-92.581787
4265.625000	-92.589134
4289.062500	-93.430717
4312.500000	-87.998611
4335.937500	-83.511345
4359.375000	-86.454147
4382.812500	-95.908798
4406.250000	-98.891426
4429.687500	-100.089806
4453.125000	-99.551147
4476.562500	-93.692398
4500.000000	-93.500717
4523.437500	-96.318863
4546.875000	-96.380661
4570.312500	-96.658173
4593.750000	-94.047974
4617.187500	-96.912735
4640.625000	-100.959274
4664.062500	-101.089981
4687.500000	-98.969833
4710.937500	-98.821541
4734.375000	-92.212860
4757.812500	-92.709709
4781.250000	-97.933006
4804.687500	-97.370918
4828.125000	-94.836594
4851.562500	-91.163597
4875.000000	-92.421021
4898.437500	-96.836441
4921.875000	-92.340164
4945.312500	-93.548882
4968.750000	-102.243332
4992.187500	-104.786049
5015.625000	-104.511978
5039.062500	-99.315819
5062.500000	-93.778473
5085.937500	-97.253922
5109.375000	-103.848129
5132.812500	-97.275635
5156.250000	-91.347450
5179.687500	-90.425217
5203.125000	-96.595757
5226.562500	-96.097755
5250.000000	-97.226929
5273.437500	-101.955658
5296.875000	-105.833725
5320.312500	-103.885818
5343.750000	-101.109383
5367.187500	-97.872169
5390.625000	-100.739296
5414.062500	-103.492271
5437.500000	-102.800285
5460.937500	-103.374763
5484.375000	-102.644707
5507.812500	-103.139893
5531.250000	-101.679626
5554.687500	-98.535233
5578.125000	-103.823753
5601.562500	-108.208351
5625.000000	-108.150429
5648.437500	-109.261086
5671.875000	-105.705986
5695.312500	-96.995193
5718.750000	-93.240547
5742.187500	-94.869736
5765.625000	-100.169914
5789.062500	-106.597298
5812.500000	-102.462036
5835.937500	-99.582664
5859.375000	-103.504333
5882.812500	-107.670502
5906.250000	-102.143036
5929.687500	-102.156784
5953.125000	-106.274849
5976.562500	-107.199783
6000.000000	-107.199600
6023.437500	-110.763603
6046.875000	-113.216858
6070.312500	-106.661949
6093.750000	-101.836174
6117.187500	-105.350777
6140.625000	-109.882233
6164.062500	-102.068321
6187.500000	-99.685860
6210.937500	-104.546707
6234.375000	-109.650589
6257.812500	-111.834564
6281.250000	-107.804024
6304.687500	-105.601875
6328.125000	-110.264336
6351.562500	-110.772339
6375.000000	-109.154488
6398.437500	-110.297119
6421.875000	-112.967270
6445.312500	-112.170532
6468.750000	-108.825958
6492.187500	-108.665352
6515.625000	-111.467010
6539.062500	-112.621017
6562.500000	-109.389145
6585.937500	-100.670731
6609.375000	-99.185730
6632.812500	-105.246193
6656.250000	-111.688248
6679.687500	-107.494835
6703.125000	-108.977837
6726.562500	-109.992798
6750.000000	-110.443977
6773.437500	-111.497490
6796.875000	-113.726631
6820.312500	-115.404663
6843.750000	-115.804802
6867.187500	-112.015602
6890.625000	-106.014511
6914.062500	-104.813744
6937.500000	-109.450592
6960.937500	-109.345894
6984.375000	-107.705055
7007.812500	-110.977905
7031.250000	-108.670303
7054.687500	-110.768661
7078.125000	-116.561554
7101.562500	-116.885208
7125.000000	-113.566284
7148.437500	-112.331215
7171.875000	-113.185585
7195.312500	-113.787109
7218.750000	-114.783432
7242.187500	-111.382729
7265.625000	-106.577835
7289.062500	-108.885132
7312.500000	-117.050140
7335.937500	-118.520256
7359.375000	-117.673637
7382.812500	-112.355652
7406.250000	-111.404907
7429.687500	-112.670647
7453.125000	-112.450813
7476.562500	-109.678619
7500.000000	-108.318642
7523.437500	-108.046906
7546.875000	-112.459236
7570.312500	-113.556458
7593.750000	-107.732918
7617.187500	-106.347137
7640.625000	-113.753883
7664.062500	-119.427010
7687.500000	-119.404633
7710.937500	-118.012711
7734.375000	-114.611343
7757.812500	-112.420692
7781.250000	-113.797340
7804.687500	-115.733505
7828.125000	-116.088699
7851.562500	-114.214203
7875.000000	-117.069557
7898.437500	-118.504768
7921.875000	-117.952919
7945.312500	-114.808205
7968.750000	-108.533310
7992.187500	-106.994728
8015.625000	-108.056076
8039.062500	-113.026421
8062.500000	-113.170792
8085.937500	-115.134727
8109.375000	-117.130615
8132.812500	-118.590851
8156.250000	-117.902245
8179.687500	-117.083839
8203.125000	-115.694633
8226.562500	-117.744064
8250.000000	-118.005310
8273.437500	-117.580856
8296.875000	-116.488945
8320.312500	-115.867882
8343.750000	-117.813721
8367.187500	-119.279694
8390.625000	-118.592247
8414.062500	-116.242264
8437.500000	-114.793259
8460.937500	-115.760239
8484.375000	-118.208679
8507.812500	-115.789398
8531.250000	-115.561081
8554.687500	-111.197426
8578.125000	-114.253181
8601.562500	-119.885269
8625.000000	-121.474388
8648.437500	-122.131271
8671.875000	-122.396004
8695.312500	-121.781380
8718.750000	-120.104836
8742.187500	-119.044724
8765.625000	-120.281960
8789.062500	-121.572693
8812.500000	-120.849907
8835.937500	-121.152130
8859.375000	-121.101875
8882.812500	-120.159081
8906.250000	-120.403496
8929.687500	-121.567253
8953.125000	-121.634743
8976.562500	-119.986526
9000.000000	-118.191315
9023.437500	-117.918633
9046.875000	-118.536957
9070.312500	-118.996956
9093.750000	-115.608162
9117.187500	-114.121246
9140.625000	-117.741699
9164.062500	-120.973282
9187.500000	-122.242828
9210.937500	-122.376274
9234.375000	-121.989250
9257.812500	-121.774704
9281.250000	-121.992920
9304.687500	-122.552879
9328.125000	-123.159691
9351.562500	-123.059616
9375.000000	-122.605995
9398.437500	-121.909874
9421.875000	-118.454247
9445.312500	-118.493103
9468.750000	-121.727959
9492.187500	-122.100525
9515.625000	-122.027405
9539.062500	-122.776260
9562.500000	-121.936302
9585.937500	-121.993210
9609.375000	-121.146561
9632.812500	-120.643234
9656.250000	-120.503036
9679.687500	-121.305450
9703.125000	-121.230415
9726.562500	-122.451279
9750.000000	-123.431473
9773.437500	-123.932465
9796.875000	-124.496643
9820.312500	-124.391991
9843.750000	-123.119133
9867.187500	-122.305649
9890.625000	-121.621284
9914.062500	-121.989189
9937.500000	-122.839157
9960.937500	-123.849030
9984.375000	-123.801285
10007.812500	-121.754501
10031.250000	-121.380409
10054.687500	-122.328423
10078.125000	-122.376411
10101.562500	-123.077240
10125.000000	-123.517998
10148.437500	-123.076622
10171.875000	-123.635513
10195.312500	-123.689583
10218.750000	-123.266357
10242.187500	-122.104820
10265.625000	-119.274261
10289.062500	-117.222809
10312.500000	-118.020615
10335.937500	-122.746193
10359.375000	-123.349609
10382.812500	-122.434158
10406.250000	-122.213646
10429.687500	-122.618462
10453.125000	-122.672577
10476.562500	-124.075890
10500.000000	-124.001587
10523.437500	-123.427368
10546.875000	-124.454147
10570.312500	-124.307533
10593.750000	-124.180077
10617.187500	-124.972557
10640.625000	-125.437271
10664.062500	-125.190353
10687.500000	-125.158203
10710.937500	-125.132446
10734.375000	-124.822357
10757.812500	-124.305229
10781.250000	-124.252640
10804.687500	-125.182541
10828.125000	-125.572273
10851.562500	-125.669312
10875.000000	-125.797577
10898.437500	-124.750702
10921.875000	-123.260101
10945.312500	-124.187691
10968.750000	-124.800529
10992.187500	-124.061974
11015.625000	-123.576675
11039.062500	-124.131401
11062.500000	-123.688583
11085.937500	-123.463638
11109.375000	-123.239365
11132.812500	-124.549820
11156.250000	-125.317719
11179.687500	-124.726547
11203.125000	-124.916267
11226.562500	-125.240738
11250.000000	-125.554459
11273.437500	-125.745895
11296.875000	-125.387497
11320.312500	-125.160568
11343.750000	-125.308105
11367.187500	-125.060547
11390.625000	-124.774773
11414.062500	-124.251778
11437.500000	-124.669876
11460.937500	-125.526199
11484.375000	-126.168861
11507.812500	-126.354378
11531.250000	-126.244408
11554.687500	-126.013733
11578.125000	-125.983200
11601.562500	-125.657799
11625.000000	-124.407135
11648.437500	-124.847839
11671.875000	-125.541328
11695.312500	-125.059448
11718.750000	-125.008820
11742.187500	-125.832489
11765.625000	-126.693291
11789.062500	-126.643440
11812.500000	-125.921387
11835.937500	-126.058609
11859.375000	-126.081306
11882.812500	-126.180664
11906.250000	-125.738770
11929.687500	-126.235046
11953.125000	-126.565010
11976.562500	-126.314430
12000.000000	-126.170967
12023.437500	-126.248207
12046.875000	-125.977264
12070.312500	-126.231979
12093.750000	-126.830475
12117.187500	-126.998283
12140.625000	-126.841721
12164.062500	-126.512192
12187.500000	-125.372574
12210.937500	-124.106316
12234.375000	-124.445068
12257.812500	-126.225761
12281.250000	-126.833427
12304.687500	-126.625877
12328.125000	-126.376183
12351.562500	-126.004654
12375.000000	-125.362381
12398.437500	-125.702744
12421.875000	-126.071320
12445.312500	-126.188660
12468.750000	-126.328880
12492.187500	-126.307953
12515.625000	-126.292648
12539.062500	-126.477425
12562.500000	-126.541924
12585.937500	-126.274879
12609.375000	-125.892570
12632.812500	-126.447556
12656.250000	-126.786324
12679.687500	-126.529633
12703.125000	-126.347443
12726.562500	-126.547585
12750.000000	-126.608307
12773.437500	-126.525368
12796.875000	-126.357101
12820.312500	-126.236618
12843.750000	-126.282196
12867.187500	-126.482658
12890.625000	-126.782082
12914.062500	-126.633492
12937.500000	-125.406670
12960.937500	-125.207954
12984.375000	-126.206306
13007.812500	-126.256699
13031.250000	-127.091141
13054.687500	-127.328651
13078.125000	-127.562859
13101.562500	-127.591515
13125.000000	-127.427025
13148.437500	-127.148056
13171.875000	-126.720856
13195.312500	-126.435898
13218.750000	-126.630798
13242.187500	-126.762405
13265.625000	-126.619354
13289.062500	-126.872856
13312.500000	-127.283714
13335.937500	-127.416725
13359.375000	-127.347816
13382.812500	-126.823883
13406.250000	-126.984108
13429.687500	-127.461670
13453.125000	-127.253151
13476.562500	-126.991188
13500.000000	-127.284096
13523.437500	-127.043915
13546.875000	-127.129936
13570.312500	-127.171768
13593.750000	-127.074242
13617.187500	-127.317917
13640.625000	-127.473793
13664.062500	-126.833267
13687.500000	-126.549782
13710.937500	-127.256096
13734.375000	-127.569702
13757.812500	-127.728767
13781.250000	-127.718651
13804.687500	-127.631584
13828.125000	-127.467033
13851.562500	-127.276001
13875.000000	-127.523544
13898.437500	-127.467094
13921.875000	-127.268143
13945.312500	-127.289230
13968.750000	-127.336037
13992.187500	-127.718857
14015.625000	-127.778763
14039.062500	-127.272331
14062.500000	-126.732132
14085.937500	-126.764198
14109.375000	-126.471313
14132.812500	-126.089287
14156.250000	-125.371513
14179.687500	-126.465874
14203.125000	-127.322540
14226.562500	-127.267319
14250.000000	-127.196014
14273.437500	-127.542747
14296.875000	-127.914879
14320.312500	-127.841721
14343.750000	-127.922478
14367.187500	-127.709549
14390.625000	-127.715782
14414.062500	-127.639671
14437.500000	-127.623901
14460.937500	-127.958130
14484.375000	-127.963158
14507.812500	-128.077347
14531.250000	-128.246918
14554.687500	-128.173340
14578.125000	-128.149246
14601.562500	-128.105881
14625.000000	-128.001175
14648.437500	-127.978699
14671.875000	-127.897354
14695.312500	-127.957161
14718.750000	-128.011063
14742.187500	-128.023560
14765.625000	-128.149628
14789.062500	-127.918884
14812.500000	-127.925819
14835.937500	-128.168777
14859.375000	-128.252304
14882.812500	-128.340485
14906.250000	-128.168243
14929.687500	-128.018661
14953.125000	-127.711563
14976.562500	-127.783813
15000.000000	-127.751289
15023.437500	-127.632561
15046.875000	-127.683510
15070.312500	-127.975815
15093.750000	-128.160141
15117.187500	-128.250717
15140.625000	-128.151367
15164.062500	-127.922142
15187.500000	-127.894447
15210.937500	-127.857216
15234.375000	-128.035904
15257.812500	-128.137192
15281.250000	-128.109436
15304.687500	-128.077957
15328.125000	-128.106323
15351.562500	-128.000565
15375.000000	-127.990036
15398.437500	-128.018204
15421.875000	-127.928589
15445.312500	-127.774712
15468.750000	-127.907776
15492.187500	-128.128235
15515.625000	-128.395401
15539.062500	-128.463684
15562.500000	-128.375092
15585.937500	-128.064026
15609.375000	-128.063934
15632.812500	-128.259766
15656.250000	-128.253616
15679.687500	-128.272385
15703.125000	-128.135590
15726.562500	-127.972404
15750.000000	-127.963654
15773.437500	-128.151947
15796.875000	-128.245300
15820.312500	-128.141312
15843.750000	-128.021210
15867.187500	-127.815781
15890.625000	-127.713425
15914.062500	-127.829384
15937.500000	-127.819473
15960.937500	-127.841896
15984.375000	-128.079498
16007.812500	-128.252670
16031.250000	-128.204468
16054.687500	-128.339233
16078.125000	-128.341141
16101.562500	-128.126022
16125.000000	-128.280930
16148.437500	-128.275894
16171.875000	-128.208389
16195.312500	-128.203201
16218.750000	-128.254974
16242.187500	-128.242523
16265.625000	-128.318192
16289.062500	-128.395294
16312.500000	-128.379028
16335.937500	-128.350006
16359.375000	-128.278625
16382.812500	-128.163574
16406.250000	-128.277756
16429.687500	-128.374054
16453.125000	-128.497040
16476.562500	-128.593079
16500.000000	-128.565567
16523.437500	-128.621399
16546.875000	-128.600723
16570.312500	-128.672089
16593.750000	-128.598022
16617.187500	-128.469482
16640.625000	-128.426605
16664.062500	-128.466415
16687.500000	-128.248901
16710.937500	-128.236725
16734.375000	-128.478455
16757.812500	-128.474503
16781.250000	-128.327286
16804.687500	-128.300507
16828.125000	-128.389160
16851.562500	-128.411942
16875.000000	-128.399612
16898.437500	-128.479401
16921.875000	-128.615005
16945.312500	-128.682785
16968.750000	-128.673508
16992.187500	-128.738861
17015.625000	-128.658661
17039.062500	-128.585144
17062.500000	-128.592224
17085.937500	-128.686020
17109.375000	-128.654953
17132.812500	-128.662430
17156.250000	-128.626526
17179.687500	-128.616486
17203.125000	-128.651245
17226.562500	-128.792572
17250.000000	-128.848480
17273.437500	-128.736664
17296.875000	-128.668640
17320.312500	-128.644257
17343.750000	-128.647278
17367.187500	-128.761673
17390.625000	-128.760452
17414.062500	-128.683777
17437.500000	-128.670563
17460.937500	-128.606476
17484.375000	-128.654037
17507.812500	-128.722260
17531.250000	-128.793396
17554.687500	-128.713501
17578.125000	-128.691498
17601.562500	-128.783340
17625.000000	-128.705658
17648.437500	-128.738174
17671.875000	-128.734711
17695.312500	-128.682083
17718.750000	-128.706100
17742.187500	-128.681793
17765.625000	-128.566956
17789.062500	-128.604935
17812.500000	-128.670319
17835.937500	-128.728058
17859.375000	-128.739624
17882.812500	-128.779984
17906.250000	-128.805740
17929.687500	-128.872971
17953.125000	-128.777512
17976.562500	-128.618942
18000.000000	-128.511703
18023.437500	-128.689407
18046.875000	-128.790710
18070.312500	-128.788498
18093.750000	-128.721481
18117.187500	-128.808090
18140.625000	-128.914352
18164.062500	-128.862976
18187.500000	-128.812225
18210.937500	-128.879379
18234.375000	-128.878998
18257.812500	-128.824203
18281.250000	-128.818649
18304.687500	-128.836960
18328.125000	-128.819366
18351.562500	-128.807220
18375.000000	-128.681015
18398.437500	-128.780685
18421.875000	-128.826111
18445.312500	-128.832962
18468.750000	-128.741333
18492.187500	-128.708252
18515.625000	-128.860245
18539.062500	-128.861237
18562.500000	-128.769882
18585.937500	-128.868759
18609.375000	-128.957443
18632.812500	-128.786636
18656.250000	-128.742355
18679.687500	-128.769196
18703.125000	-128.684189
18726.562500	-128.607864
18750.000000	-128.751297
18773.437500	-128.794601
18796.875000	-128.752716
18820.312500	-128.790802
18843.750000	-128.728302
18867.187500	-128.730438
18890.625000	-128.745422
18914.062500	-128.749207
18937.500000	-128.803741
18960.937500	-128.803757
18984.375000	-128.854767
19007.812500	-128.786179
19031.250000	-128.700409
19054.687500	-128.592819
19078.125000	-128.286301
19101.562500	-128.106216
19125.000000	-127.334488
19148.437500	-126.481682
19171.875000	-125.435448
19195.312500	-125.037918
19218.750000	-125.869492
19242.187500	-126.754524
19265.625000	-126.732460
19289.062500	-127.056908
19312.500000	-127.144707
19335.937500	-127.377289
19359.375000	-127.814384
19382.812500	-127.960968
19406.250000	-127.928764
19429.687500	-128.334671
19453.125000	-128.532135
19476.562500	-128.647720
19500.000000	-128.381592
19523.437500	-128.584213
19546.875000	-128.764862
19570.312500	-128.744003
19593.750000	-128.825195
19617.187500	-128.704208
19640.625000	-128.758240
19664.062500	-128.714600
19687.500000	-128.801971
19710.937500	-128.859711
19734.375000	-128.927032
19757.812500	-128.861816
19781.250000	-128.774277
19804.687500	-128.846313
19828.125000	-128.837280
19851.562500	-128.910248
19875.000000	-128.963043
19898.437500	-128.940369
19921.875000	-128.933868
19945.312500	-128.935410
19968.750000	-128.949371
19992.187500	-128.983582
20015.625000	-128.973450
20039.062500	-128.975327
20062.500000	-128.896866
20085.937500	-128.897736
20109.375000	-128.786591
20132.812500	-128.159088
20156.250000	-128.732010
20179.687500	-128.907867
20203.125000	-128.877960
20226.562500	-128.949966
20250.000000	-128.891678
20273.437500	-128.866089
20296.875000	-128.861649
20320.312500	-128.898865
20343.750000	-128.950974
20367.187500	-128.909195
20390.625000	-128.833328
20414.062500	-128.914764
20437.500000	-128.899200
20460.937500	-128.857864
20484.375000	-128.865036
20507.812500	-128.933731
20531.250000	-128.913818
20554.687500	-128.837158
20578.125000	-128.954208
20601.562500	-128.941711
20625.000000	-128.950638
20648.437500	-128.919800
20671.875000	-129.000229
20695.312500	-128.995010
20718.750000	-128.934036
20742.187500	-128.932831
20765.625000	-128.881760
20789.062500	-128.990051
20812.500000	-128.937088
20835.937500	-128.962158
20859.375000	-128.989120
20882.812500	-128.871948
20906.250000	-128.926453
20929.687500	-128.981781
20953.125000	-128.858948
20976.562500	-128.774689
21000.000000	-128.577866
21023.437500	-128.769287
21046.875000	-128.808212
21070.312500	-128.874649
21093.750000	-128.829956
21117.187500	-128.843903
21140.625000	-128.933167
21164.062500	-128.895142
21187.500000	-128.965637
21210.937500	-128.975311
21234.375000	-128.893921
21257.812500	-128.994476
21281.250000	-128.952545
21304.687500	-128.977509
21328.125000	-129.006332
21351.562500	-129.037415
21375.000000	-129.003098
21398.437500	-128.985611
21421.875000	-129.056931
21445.312500	-129.027328
21468.750000	-128.936966
21492.187500	-128.921021
21515.625000	-128.955276
21539.062500	-128.977173
21562.500000	-128.958817
21585.937500	-128.961746
21609.375000	-128.942963
21632.812500	-129.047394
21656.250000	-129.022888
21679.687500	-129.063736
21703.125000	-128.954559
21726.562500	-129.031021
21750.000000	-129.117340
21773.437500	-129.065552
21796.875000	-129.020187
21820.312500	-128.987534
21843.750000	-128.931183
21867.187500	-128.904861
21890.625000	-128.955872
21914.062500	-128.993195
21937.500000	-128.993225
21960.937500	-128.994431
21984.375000	-128.977478
22007.812500	-129.056839
22031.250000	-129.018188
22054.687500	-129.038116
22078.125000	-129.022934
22101.562500	-128.909241
22125.000000	-128.875732
22148.437500	-128.959198
22171.875000	-128.884506
22195.312500	-128.803070
22218.750000	-128.877731
22242.187500	-128.981995
22265.625000	-129.006119
22289.062500	-129.058731
22312.500000	-129.014069
22335.937500	-128.944061
22359.375000	-128.795029
22382.812500	-128.901413
22406.250000	-128.910416
22429.687500	-128.876755
22453.125000	-128.965561
22476.562500	-128.905670
22500.000000	-128.812622
22523.437500	-128.954590
22546.875000	-128.960052
22570.312500	-128.963989
22593.750000	-128.944809
22617.187500	-128.890442
22640.625000	-128.872589
22664.062500	-128.884750
22687.500000	-128.917007
22710.937500	-128.873276
22734.375000	-128.907730
22757.812500	-128.840652
22781.250000	-128.854401
22804.687500	-128.808701
22828.125000	-128.818176
22851.562500	-128.996918
22875.000000	-128.911560
22898.437500	-128.868484
22921.875000	-128.943771
22945.312500	-129.007629
22968.750000	-128.936722
22992.187500	-128.902374
23015.625000	-128.902466
23039.062500	-128.891861
23062.500000	-128.852478
23085.937500	-128.907745
23109.375000	-128.931824
23132.812500	-128.907669
23156.250000	-128.866272
23179.687500	-129.013443
23203.125000	-129.047882
23226.562500	-129.009521
23250.000000	-129.034332
23273.437500	-129.022171
23296.875000	-129.068787
23320.312500	-129.015900
23343.750000	-129.018860
23367.187500	-128.990036
23390.625000	-128.965607
23414.062500	-129.031540
23437.500000	-129.010895
23460.937500	-129.010254
23484.375000	-129.051239
23507.812500	-128.959915
23531.250000	-128.952072
23554.687500	-128.917038
23578.125000	-128.880447
23601.562500	-128.916840
23625.000000	-128.823883
23648.437500	-128.888519
23671.875000	-129.008255
23695.312500	-129.076019
23718.750000	-129.026321
23742.187500	-129.030380
23765.625000	-129.049423
23789.062500	-129.007217
23812.500000	-129.027008
23835.937500	-128.924789
23859.375000	-128.903458
23882.812500	-128.908173
23906.250000	-128.942963
23929.687500	-129.056870
23953.125000	-129.019241
23976.562500	-128.945206
24000.000000	-129.067627
24023.437500	-129.128647
24046.875000	-129.045593
24070.312500	-129.015991
24093.750000	-129.039581
24117.187500	-129.038971
24140.625000	-128.970718
24164.062500	-128.966034
24187.500000	-128.897583
24210.937500	-128.936218
24234.375000	-129.096222
24257.812500	-129.159592
24281.250000	-128.984665
24304.687500	-128.922623
24328.125000	-128.987610
24351.562500	-128.847824
24375.000000	-128.893234
24398.437500	-128.957214
24421.875000	-128.978836
24445.312500	-129.046509
24468.750000	-128.982452
24492.187500	-129.064758
24515.625000	-129.046280
24539.062500	-128.965897
24562.500000	-128.960541
24585.937500	-128.965912
24609.375000	-129.009079
24632.812500	-128.992340
24656.250000	-128.955597
24679.687500	-128.971329
24703.125000	-128.990677
24726.562500	-128.989792
24750.000000	-128.877548
24773.437500	-128.936752
24796.875000	-128.912521
24820.312500	-128.804474
24843.750000	-128.905762
24867.187500	-128.928375
24890.625000	-128.879288
24914.062500	-128.912384
24937.500000	-128.908081
24960.937500	-128.839035
24984.375000	-128.951416
25007.812500	-128.925751
25031.250000	-128.890030
25054.687500	-128.869720
25078.125000	-128.842453
25101.562500	-128.871918
25125.000000	-128.932419
25148.437500	-128.925446
25171.875000	-128.983719
25195.312500	-128.972046
25218.750000	-129.043320
25242.187500	-128.987762
25265.625000	-128.907288
25289.062500	-128.845200
25312.500000	-128.922867
25335.937500	-128.820862
25359.375000	-128.921753
25382.812500	-128.985092
25406.250000	-129.004242
25429.687500	-128.948868
25453.125000	-128.781464
25476.562500	-128.897156
25500.000000	-129.018875
25523.437500	-129.013458
25546.875000	-128.951233
25570.312500	-128.992874
25593.750000	-128.991486
25617.187500	-128.981384
25640.625000	-129.032227
25664.062500	-128.984360
25687.500000	-128.937790
25710.937500	-128.915543
25734.375000	-128.943481
25757.812500	-128.967514
25781.250000	-128.937790
25804.687500	-129.003113
25828.125000	-129.048859
25851.562500	-128.985550
25875.000000	-128.921448
25898.437500	-128.945404
25921.875000	-128.958252
25945.312500	-128.868179
25968.750000	-128.888809
25992.187500	-128.977966
26015.625000	-128.908600
26039.062500	-128.896347
26062.500000	-128.914780
26085.937500	-128.920532
26109.375000	-128.960754
26132.812500	-128.914627
26156.250000	-128.919006
26179.687500	-128.963272
26203.125000	-128.914062
26226.562500	-128.890320
26250.000000	-128.980209
26273.437500	-129.034103
26296.875000	-128.934158
26320.312500	-129.055328
26343.750000	-128.975861
26367.187500	-128.874268
26390.625000	-128.990448
26414.062500	-129.014450
26437.500000	-128.991409
26460.937500	-128.942200
26484.375000	-128.937866
26507.812500	-128.953598
26531.250000	-128.969498
26554.687500	-128.892761
26578.125000	-128.930893
26601.562500	-128.986984
26625.000000	-128.954056
26648.437500	-128.970703
26671.875000	-128.920273
26695.312500	-129.002747
26718.750000	-129.050949
26742.187500	-128.999252
26765.625000	-128.998856
26789.062500	-128.970444
26812.500000	-128.918320
26835.937500	-128.944763
26859.375000	-129.013107
26882.812500	-128.955856
26906.250000	-128.917831
26929.687500	-128.914261
26953.125000	-128.937119
26976.562500	-128.882309
27000.000000	-129.000214
27023.437500	-129.019669
27046.875000	-129.083710
27070.312500	-129.045868
27093.750000	-128.973251
27117.187500	-128.909546
27140.625000	-128.848724
27164.062500	-128.895737
27187.500000	-128.964615
27210.937500	-128.920593
27234.375000	-128.987930
27257.812500	-129.045990
27281.250000	-128.883575
27304.687500	-128.893448
27328.125000	-128.882248
27351.562500	-128.863373
27375.000000	-128.889130
27398.437500	-128.889664
27421.875000	-128.836121
27445.312500	-128.801071
27468.750000	-128.875809
27492.187500	-128.993500
27515.625000	-129.000763
27539.062500	-128.827225
27562.500000	-128.789352
27585.937500	-128.899399
27609.375000	-128.872238
27632.812500	-128.952026
27656.250000	-128.913086
27679.687500	-128.822983
27703.125000	-128.716812
27726.562500	-128.827286
27750.000000	-128.906738
27773.437500	-128.890244
27796.875000	-128.889557
27820.312500	-128.824707
27843.750000	-128.825089
27867.187500	-128.872284
27890.625000	-128.877289
27914.062500	-128.906601
27937.500000	-128.908096
27960.937500	-128.790955
27984.375000	-128.662125
28007.812500	-128.701492
28031.250000	-128.750046
28054.687500	-128.818817
28078.125000	-128.843826
28101.562500	-128.796722
28125.000000	-128.840378
28148.437500	-128.890045
28171.875000	-128.772552
28195.312500	-128.750107
28218.750000	-128.856796
28242.187500	-128.927521
28265.625000	-128.898544
28289.062500	-128.858734
28312.500000	-128.865250
28335.937500	-128.854813
28359.375000	-128.829315
28382.812500	-128.884995
28406.250000	-128.958908
28429.687500	-128.941284
28453.125000	-128.784180
28476.562500	-128.833221
28500.000000	-128.853973
28523.437500	-128.844421
28546.875000	-128.970749
28570.312500	-128.912338
28593.750000	-128.812790
28617.187500	-128.865158
28640.625000	-128.838135
28664.062500	-128.987900
28687.500000	-128.934433
28710.937500	-128.844498
28734.375000	-128.923096
28757.812500	-128.986877
28781.250000	-128.981903
28804.687500	-128.859970
28828.125000	-128.879562
28851.562500	-128.919403
28875.000000	-128.843918
28898.437500	-128.859634
28921.875000	-128.800735
28945.312500	-128.865341
28968.750000	-128.944901
28992.187500	-128.954056
29015.625000	-128.873398
29039.062500	-128.833252
29062.500000	-128.797012
29085.937500	-128.864288
29109.375000	-128.931763
29132.812500	-128.884872
29156.250000	-128.924973
29179.687500	-128.917648
29203.125000	-128.944183
29226.562500	-128.990219
29250.000000	-129.000046
29273.437500	-128.883438
29296.875000	-128.863190
29320.312500	-128.882629
29343.750000	-128.886276
29367.187500	-128.979080
29390.625000	-129.012131
29414.062500	-128.865646
29437.500000	-128.833542
29460.937500	-128.842590
29484.375000	-128.775574
29507.812500	-128.814560
29531.250000	-128.808807
29554.687500	-128.796677
29578.125000	-128.848923
29601.562500	-128.796204
29625.000000	-128.808151
29648.437500	-128.828186
29671.875000	-128.888107
29695.312500	-128.906754
29718.750000	-128.824814
29742.187500	-128.900253
29765.625000	-128.899307
29789.062500	-128.833908
29812.500000	-128.849121
29835.937500	-128.904053
29859.375000	-128.940201
29882.812500	-128.936340
29906.250000	-128.879684
29929.687500	-128.834015
29953.125000	-128.874802
29976.562500	-128.918457
30000.000000	-128.814392
30023.437500	-128.872940
30046.875000	-128.934891
30070.312500	-128.876877
30093.750000	-128.878143
30117.187500	-128.940643
30140.625000	-128.974091
30164.062500	-128.968307
30187.500000	-128.957260
30210.937500	-128.922882
30234.375000	-128.905823
30257.812500	-128.827484
30281.250000	-128.903915
30304.687500	-128.868423
30328.125000	-128.954727
30351.562500	-128.880035
30375.000000	-128.764053
30398.437500	-128.798401
30421.875000	-128.839890
30445.312500	-128.835648
30468.750000	-128.808060
30492.187500	-128.851440
30515.625000	-128.867844
30539.062500	-128.935562
30562.500000	-128.924377
30585.937500	-128.901077
30609.375000	-128.878006
30632.812500	-128.798203
30656.250000	-128.918854
30679.687500	-128.962921
30703.125000	-128.945511
30726.562500	-128.855881
30750.000000	-128.807220
30773.437500	-128.888168
30796.875000	-128.866150
30820.312500	-128.842575
30843.750000	-128.878204
30867.187500	-128.811890
30890.625000	-128.889450
30914.062500	-128.830948
30937.500000	-128.946518
30960.937500	-128.973450
30984.375000	-128.873352
31007.812500	-128.867920
31031.250000	-128.863235
31054.687500	-128.854965
31078.125000	-128.815674
31101.562500	-128.853271
31125.000000	-128.837936
31148.437500	-128.750549
31171.875000	-128.756256
31195.312500	-128.766922
31218.750000	-128.929596
31242.187500	-128.894043
31265.625000	-128.790176
31289.062500	-128.871231
31312.500000	-128.840118
31335.937500	-128.801819
31359.375000	-128.755112
31382.812500	-128.729263
31406.250000	-128.817917
31429.687500	-128.806198
31453.125000	-128.785706
31476.562500	-128.759537
31500.000000	-128.664261
31523.437500	-128.746140
31546.875000	-128.796356
31570.312500	-128.819870
31593.750000	-128.722290
31617.187500	-128.769028
31640.625000	-128.766190
31664.062500	-128.819778
31687.500000	-128.801437
31710.937500	-128.784485
31734.375000	-128.862167
31757.812500	-128.841370
31781.250000	-128.913284
31804.687500	-128.834412
31828.125000	-128.793900
31851.562500	-128.812561
31875.000000	-128.838165
31898.437500	-128.842606
31921.875000	-128.814346
31945.312500	-128.764832
31968.750000	-128.864288
31992.187500	-128.908936
32015.625000	-128.897934
32039.062500	-128.909317
32062.500000	-128.869720
32085.937500	-128.898392
32109.375000	-128.861282
32132.812500	-128.930237
32156.250000	-128.863434
32179.687500	-128.812698
32203.125000	-128.866333
32226.562500	-128.857407
32250.000000	-128.898163
32273.437500	-128.881210
32296.875000	-128.874115
32320.312500	-128.775574
32343.750000	-128.756500
32367.187500	-128.887039
32390.625000	-128.895874
32414.062500	-128.815048
32437.500000	-128.771805
32460.937500	-128.751175
32484.375000	-128.885300
32507.812500	-128.952774
32531.250000	-128.916672
32554.687500	-128.862244
32578.125000	-128.998550
32601.562500	-128.938110
32625.000000	-128.863876
32648.437500	-128.861084
32671.875000	-128.831314
32695.312500	-128.737579
32718.750000	-128.836594
32742.187500	-128.849411
32765.625000	-128.851501
32789.062500	-128.809830
32812.500000	-128.880325
32835.937500	-128.847900
32859.375000	-128.890869
32882.812500	-128.921860
32906.250000	-128.751099
32929.687500	-128.810181
32953.125000	-128.814438
32976.562500	-128.768326
33000.000000	-128.764221
33023.437500	-128.753143
33046.875000	-128.794632
33070.312500	-128.751816
33093.750000	-128.799713
33117.187500	-128.865555
33140.625000	-128.754929
33164.062500	-128.821198
33187.500000	-128.833878
33210.937500	-128.785919
33234.375000	-128.709747
33257.812500	-128.760483
33281.250000	-128.763962
33304.687500	-128.770554
33328.125000	-128.736023
33351.562500	-128.749603
33375.000000	-128.696732
33398.437500	-128.789322
33421.875000	-128.851318
33445.312500	-128.814636
33468.750000	-128.819275
33492.187500	-128.733734
33515.625000	-128.612076
33539.062500	-128.743439
33562.500000	-128.807983
33585.937500	-128.747253
33609.375000	-128.804276
33632.812500	-128.825943
33656.250000	-128.802155
33679.687500	-128.759903
33703.125000	-128.838120
33726.562500	-128.752151
33750.000000	-128.739777
33773.437500	-128.801514
33796.875000	-128.805527
33820.312500	-128.784714
33843.750000	-128.826920
33867.187500	-128.844635
33890.625000	-128.830917
33914.062500	-128.816650
33937.500000	-128.748581
33960.937500	-128.815018
33984.375000	-128.883041
34007.812500	-128.862289
34031.250000	-128.800720
34054.687500	-128.857162
34078.125000	-128.826431
34101.562500	-128.802032
34125.000000	-128.854706
34148.437500	-128.857498
34171.875000	-128.766327
34195.312500	-128.679825
34218.750000	-128.769394
34242.187500	-128.813553
34265.625000	-128.800323
34289.062500	-128.759918
34312.500000	-128.861786
34335.937500	-128.807785
34359.375000	-128.828735
34382.812500	-128.757172
34406.250000	-128.719757
34429.687500	-128.767563
34453.125000	-128.762817
34476.562500	-128.761765
34500.000000	-128.751984
34523.437500	-128.790466
34546.875000	-128.808746
34570.312500	-128.758118
34593.750000	-128.692520
34617.187500	-128.708328
34640.625000	-128.715881
34664.062500	-128.754395
34687.500000	-128.808472
34710.937500	-128.724060
34734.375000	-128.697784
34757.812500	-128.731308
34781.250000	-128.818695
34804.687500	-128.703339
34828.125000	-128.783951
34851.562500	-128.793198
34875.000000	-128.754257
34898.437500	-128.738220
34921.875000	-128.720810
34945.312500	-128.742859
34968.750000	-128.687485
34992.187500	-128.767136
35015.625000	-128.823242
35039.062500	-128.783615
35062.500000	-128.781815
35085.937500	-128.754608
35109.375000	-128.718735
35132.812500	-128.793213
35156.250000	-128.729355
35179.687500	-128.710922
35203.125000	-128.704407
35226.562500	-128.742737
35250.000000	-128.705368
35273.437500	-128.692413
35296.875000	-128.696213
35320.312500	-128.740738
35343.750000	-128.773911
35367.187500	-128.757782
35390.625000	-128.763733
35414.062500	-128.788849
35437.500000	-128.739090
35460.937500	-128.682953
35484.375000	-128.738129
35507.812500	-128.718719
35531.250000	-128.677872
35554.687500	-128.702316
35578.125000	-128.736420
35601.562500	-128.799637
35625.000000	-128.782806
35648.437500	-128.672501
35671.875000	-128.698914
35695.312500	-128.698044
35718.750000	-128.725418
35742.187500	-128.756134
35765.625000	-128.834366
35789.062500	-128.758377
35812.500000	-128.753937
35835.937500	-128.798264
35859.375000	-128.828323
35882.812500	-128.814163
35906.250000	-128.839661
35929.687500	-128.735992
35953.125000	-128.691605
35976.562500	-128.663925
36000.000000	-128.674454
36023.437500	-128.713409
36046.875000	-128.737946
36070.312500	-128.790131
36093.750000	-128.836182
36117.187500	-128.869766
36140.625000	-128.814102
36164.062500	-128.838440
36187.500000	-128.837433
36210.937500	-128.744171
36234.375000	-128.784714
36257.812500	-128.774719
36281.250000	-128.580780
36304.687500	-128.694778
36328.125000	-128.755081
36351.562500	-128.716415
36375.000000	-128.733521
36398.437500	-128.704147
36421.875000	-128.688019
36445.312500	-128.685944
36468.750000	-128.695877
36492.187500	-128.673401
36515.625000	-128.714096
36539.062500	-128.763474
36562.500000	-128.764206
36585.937500	-128.731995
36609.375000	-128.704300
36632.812500	-128.724030
36656.250000	-128.744705
36679.687500	-128.716827
36703.125000	-128.695496
36726.562500	-128.736847
36750.000000	-128.803833
36773.437500	-128.722504
36796.875000	-128.649612
36820.312500	-128.599380
36843.750000	-128.704956
36867.187500	-128.727371
36890.625000	-128.746719
36914.062500	-128.715866
36937.500000	-128.737930
36960.937500	-128.777374
36984.375000	-128.664169
37007.812500	-128.769104
37031.250000	-128.789490
37054.687500	-128.750366
37078.125000	-128.689377
37101.562500	-128.731567
37125.000000	-128.774628
37148.437500	-128.786438
37171.875000	-128.806091
37195.312500	-128.770645
37218.750000	-128.738586
37242.187500	-128.712723
37265.625000	-128.747528
37289.062500	-128.736450
37312.500000	-128.686005
37335.937500	-128.694061
37359.375000	-128.628021
37382.812500	-128.697937
37406.250000	-128.684479
37429.687500	-128.791656
37453.125000	-128.816223
37476.562500	-128.694595
37500.000000	-128.634827
37523.437500	-128.466080
37546.875000	-128.397614
37570.312500	-128.507904
37593.750000	-128.599304
37617.187500	-128.608353
37640.625000	-128.562378
37664.062500	-128.647675
37687.500000	-128.659836
37710.937500	-128.698700
37734.375000	-128.705078
37757.812500	-128.638596
37781.250000	-128.664139
37804.687500	-128.628128
37828.125000	-128.691879
37851.562500	-128.703125
37875.000000	-128.763748
37898.437500	-128.749008
37921.875000	-128.639633
37945.312500	-128.637436
37968.750000	-128.706436
37992.187500	-128.660049
38015.625000	-128.670959
38039.062500	-128.643219
38062.500000	-128.615829
38085.937500	-128.619980
38109.375000	-128.655823
38132.812500	-128.664719
38156.250000	-128.651962
38179.687500	-128.547394
38203.125000	-128.469482
38226.562500	-128.384888
38250.000000	-128.340088
38273.437500	-128.174301
38296.875000	-127.980362
38320.312500	-127.789574
38343.750000	-128.011505
38367.187500	-128.267288
38390.625000	-128.170288
38414.062500	-128.108902
38437.500000	-128.056778
38460.937500	-128.132996
38484.375000	-128.144852
38507.812500	-128.178986
38531.250000	-128.230591
38554.687500	-128.244980
38578.125000	-128.395142
38601.562500	-128.488525
38625.000000	-128.398544
38648.437500	-128.303391
38671.875000	-128.449966
38695.312500	-128.526337
38718.750000	-128.533325
38742.187500	-128.553406
38765.625000	-128.453979
38789.062500	-128.502502
38812.500000	-128.524597
38835.937500	-128.563431
38859.375000	-128.540985
38882.812500	-128.523163
38906.250000	-128.598175
38929.687500	-128.524261
38953.125000	-128.576309
38976.562500	-128.528992
39000.000000	-128.504593
39023.437500	-128.679108
39046.875000	-128.689667
39070.312500	-128.612259
39093.750000	-128.616119
39117.187500	-128.634842
39140.625000	-128.612610
39164.062500	-128.657639
39187.500000	-128.611801
39210.937500	-128.624847
39234.375000	-128.591446
39257.812500	-128.617325
39281.250000	-128.626358
39304.687500	-128.641663
39328.125000	-128.652420
39351.562500	-128.642944
39375.000000	-128.630447
39398.437500	-128.650833
39421.875000	-128.647415
39445.312500	-128.619141
39468.750000	-128.696259
39492.187500	-128.751068
39515.625000	-128.665955
39539.062500	-128.603729
39562.500000	-128.656540
39585.937500	-128.635010
39609.375000	-128.587250
39632.812500	-128.659134
39656.250000	-128.664536
39679.687500	-128.660400
39703.125000	-128.635681
39726.562500	-128.651794
39750.000000	-128.579697
39773.437500	-128.660934
39796.875000	-128.660004
39820.312500	-128.579483
39843.750000	-128.563232
39867.187500	-128.572708
39890.625000	-128.607819
39914.062500	-128.669540
39937.500000	-128.654800
39960.937500	-128.724747
39984.375000	-128.674118
40007.812500	-128.722351
40031.250000	-128.815628
40054.687500	-128.734283
40078.125000	-128.677933
40101.562500	-128.623779
40125.000000	-128.529709
40148.437500	-128.608353
40171.875000	-128.672424
40195.312500	-128.654327
40218.750000	-128.600830
40242.187500	-128.611923
40265.625000	-128.350204
40289.062500	-128.491089
40312.500000	-128.632538
40335.937500	-128.622284
40359.375000	-128.587921
40382.812500	-128.583084
40406.250000	-128.682419
40429.687500	-128.604813
40453.125000	-128.597397
40476.562500	-128.625305
40500.000000	-128.514572
40523.437500	-128.634979
40546.875000	-128.589600
40570.312500	-128.602798
40593.750000	-128.534943
40617.187500	-128.625443
40640.625000	-128.665802
40664.062500	-128.547791
40687.500000	-128.612915
40710.937500	-128.672958
40734.375000	-128.592499
40757.812500	-128.516464
40781.250000	-128.605209
40804.687500	-128.590378
40828.125000	-128.577545
40851.562500	-128.647064
40875.000000	-128.629913
40898.437500	-128.625107
40921.875000	-128.590424
40945.312500	-128.710617
40968.750000	-128.736389
40992.187500	-128.671768
41015.625000	-128.688248
41039.062500	-128.690979
41062.500000	-128.562820
41085.937500	-128.689423
41109.375000	-128.711380
41132.812500	-128.610321
41156.250000	-128.628708
41179.687500	-128.659286
41203.125000	-128.672821
41226.562500	-128.622513
41250.000000	-128.669235
41273.437500	-128.639984
41296.875000	-128.683975
41320.312500	-128.717606
41343.750000	-128.633011
41367.187500	-128.623505
41390.625000	-128.671707
41414.062500	-128.704132
41437.500000	-128.669830
41460.937500	-128.688324
41484.375000	-128.645874
41507.812500	-128.677490
41531.250000	-128.663467
41554.687500	-128.718124
41578.125000	-128.678146
41601.562500	-128.686691
41625.000000	-128.712662
41648.437500	-128.749908
41671.875000	-128.690369
41695.312500	-128.590302
41718.750000	-128.610245
41742.187500	-128.681931
41765.625000	-128.742859
41789.062500	-128.740097
41812.500000	-128.725601
41835.937500	-128.630203
41859.375000	-128.703140
41882.812500	-128.744125
41906.250000	-128.750305
41929.687500	-128.761963
41953.125000	-128.820831
41976.562500	-128.825867
42000.000000	-128.648727
42023.437500	-128.692307
42046.875000	-128.772430
42070.312500	-128.739380
42093.750000	-128.687622
42117.187500	-128.704666
42140.625000	-128.680954
42164.062500	-128.795502
42187.500000	-128.802933
42210.937500	-128.734222
42234.375000	-128.674240
42257.812500	-128.745224
42281.250000	-128.848724
42304.687500	-128.836121
42328.125000	-128.732117
42351.562500	-128.653427
42375.000000	-128.708694
42398.437500	-128.887146
42421.875000	-128.901779
42445.312500	-128.853333
42468.750000	-128.897766
42492.187500	-128.939941
42515.625000	-128.883560
42539.062500	-128.828583
42562.500000	-128.859848
42585.937500	-128.856323
42609.375000	-128.909042
42632.812500	-128.911469
42656.250000	-128.925583
42679.687500	-128.924698
42703.125000	-128.870972
42726.562500	-128.781799
42750.000000	-128.835739
42773.437500	-128.929489
42796.875000	-128.978851
42820.312500	-128.843506
42843.750000	-128.866180
42867.187500	-128.948959
42890.625000	-128.945709
42914.062500	-129.002029
42937.500000	-129.009674
42960.937500	-128.951401
42984.375000	-128.923340
43007.812500	-128.865158
43031.250000	-128.966125
43054.687500	-129.143082
43078.125000	-129.044144
43101.562500	-128.981094
43125.000000	-128.910782
43148.437500	-128.828598
43171.875000	-128.967361
43195.312500	-129.102631
43218.750000	-129.138733
43242.187500	-129.145966
43265.625000	-129.019409
43289.062500	-129.059647
43312.500000	-129.135788
43335.937500	-129.105911
43359.375000	-129.100769
43382.812500	-129.087708
43406.250000	-129.170456
43429.687500	-129.137802
43453.125000	-129.114639
43476.562500	-129.027023
43500.000000	-129.112411
43523.437500	-129.147736
43546.875000	-129.168259
43570.312500	-129.245346
43593.750000	-129.202026
43617.187500	-129.202972
43640.625000	-129.171814
43664.062500	-129.163300
43687.500000	-129.198822
43710.937500	-129.274063
43734.375000	-129.308456
43757.812500	-129.310608
43781.250000	-129.229950
43804.687500	-129.218460
43828.125000	-129.272476
43851.562500	-129.281036
43875.000000	-129.367371
43898.437500	-129.289154
43921.875000	-129.286514
43945.312500	-129.256241
43968.750000	-129.265793
43992.187500	-129.288101
44015.625000	-129.293137
44039.062500	-129.360580
44062.500000	-129.443619
44085.937500	-129.393631
44109.375000	-129.324280
44132.812500	-129.324890
44156.250000	-129.368820
44179.687500	-129.445816
44203.125000	-129.508682
44226.562500	-129.402344
44250.000000	-129.411362
44273.437500	-129.418610
44296.875000	-129.422333
44320.312500	-129.383286
44343.750000	-129.469162
44367.187500	-129.505310
44390.625000	-129.432404
44414.062500	-129.402695
44437.500000	-129.514313
44460.937500	-129.659103
44484.375000	-129.620041
44507.812500	-129.647247
44531.250000	-129.582092
44554.687500	-129.481750
44578.125000	-129.585663
44601.562500	-129.632385
44625.000000	-129.617935
44648.437500	-129.541122
44671.875000	-129.566071
44695.312500	-129.684753
44718.750000	-129.701889
44742.187500	-129.656937
44765.625000	-129.689560
44789.062500	-129.688705
44812.500000	-129.668808
44835.937500	-129.747559
44859.375000	-129.771622
44882.812500	-129.742599
44906.250000	-129.726593
44929.687500	-129.668533
44953.125000	-129.654160
44976.562500	-129.739288
45000.000000	-129.744614
45023.437500	-129.832932
45046.875000	-129.878357
45070.312500	-129.777954
45093.750000	-129.771515
45117.187500	-129.737274
45140.625000	-129.798126
45164.062500	-129.854630
45187.500000	-129.879303
45210.937500	-129.949585
45234.375000	-129.958191
45257.812500	-129.955383
45281.250000	-130.016281
45304.687500	-130.098709
45328.125000	-130.040359
45351.562500	-130.010498
45375.000000	-129.934174
45398.437500	-129.931259
45421.875000	-130.067581
45445.312500	-130.060547
45468.750000	-129.941086
45492.187500	-129.986847
45515.625000	-130.120987
45539.062500	-130.160980
45562.500000	-130.091660
45585.937500	-130.089935
45609.375000	-130.091934
45632.812500	-130.071152
45656.250000	-130.062317
45679.687500	-130.089996
45703.125000	-130.163269
45726.562500	-130.141953
45750.000000	-130.204163
45773.437500	-130.294144
45796.875000	-130.321503
45820.312500	-130.305038
45843.750000	-130.290695
45867.187500	-130.337601
45890.625000	-130.304428
45914.062500	-130.377213
45937.500000	-130.382904
45960.937500	-130.368225
45984.375000	-130.418304
46007.812500	-130.409546
46031.250000	-130.434036
46054.687500	-130.459549
46078.125000	-130.519974
46101.562500	-130.511719
46125.000000	-130.502151
46148.437500	-130.503860
46171.875000	-130.542404
46195.312500	-130.553040
46218.750000	-130.532867
46242.187500	-130.453903
46265.625000	-130.584641
46289.062500	-130.620483
46312.500000	-130.520523
46335.937500	-130.562057
46359.375000	-130.561615
46382.812500	-130.545166
46406.250000	-130.620636
46429.687500	-130.660645
46453.125000	-130.640869
46476.562500	-130.784500
46500.000000	-130.701126
46523.437500	-130.706497
46546.875000	-130.670441
46570.312500	-130.747101
46593.750000	-130.658875
46617.187500	-130.665344
46640.625000	-130.769318
46664.062500	-130.767929
46687.500000	-130.770111
46710.937500	-130.734711
46734.375000	-130.754654
46757.812500	-130.837036
46781.250000	-130.949844
46804.687500	-130.828690
46828.125000	-130.857025
46851.562500	-130.870071
46875.000000	-130.851410
46898.437500	-130.869568
46921.875000	-130.878845
46945.312500	-130.918579
46968.750000	-130.881729
46992.187500	-130.930206
47015.625000	-130.884445
47039.062500	-130.930130
47062.500000	-130.932266
47085.937500	-130.904984
47109.375000	-130.859985
47132.812500	-130.881134
47156.250000	-131.053772
47179.687500	-131.051712
47203.125000	-130.993866
47226.562500	-130.914429
47250.000000	-130.961594
47273.437500	-130.987808
47296.875000	-131.005447
47320.312500	-130.949493
47343.750000	-130.954712
47367.187500	-130.993805
47390.625000	-131.070755
47414.062500	-131.026215
47437.500000	-131.041397
47460.937500	-131.176407
47484.375000	-131.073029
47507.812500	-131.102936
47531.250000	-131.057144
47554.687500	-131.015945
47578.125000	-131.033249
47601.562500	-131.093903
47625.000000	-131.133865
47648.437500	-131.123764
47671.875000	-131.214981
47695.312500	-131.027725
47718.750000	-130.942215
47742.187500	-131.116409
47765.625000	-131.265900
47789.062500	-131.065216
47812.500000	-131.031448
47835.937500	-131.069839
47859.375000	-131.093124
47882.812500	-131.179993
47906.250000	-131.133957
47929.687500	-131.124573
47953.125000	-131.140594
47976.562500	-131.134262
