주파수 (Hz)	레벨 (dB)
23.437500	-95.667221
46.875000	-81.157959
70.312500	-68.202759
93.750000	-62.673889
117.187500	-60.894283
140.625000	-60.485268
164.062500	-61.931927
187.500000	-60.943459
210.937500	-58.730671
234.375000	-56.142750
257.812500	-60.450939
281.250000	-60.123817
304.687500	-60.137028
328.125000	-63.204914
351.562500	-61.659534
375.000000	-58.424545
398.437500	-58.561729
421.875000	-60.934322
445.312500	-59.510624
468.750000	-58.758011
492.187500	-61.949249
515.625000	-61.431141
539.062500	-62.449966
562.500000	-59.785973
585.937500	-52.203835
609.375000	-54.816418
632.812500	-59.632690
656.250000	-68.021965
679.687500	-65.287132
703.125000	-60.751434
726.562500	-64.290451
750.000000	-66.215363
773.437500	-63.604671
796.875000	-62.291046
820.312500	-68.916290
843.750000	-75.184532
867.187500	-74.762733
890.625000	-73.208260
914.062500	-72.574387
937.500000	-68.173317
960.937500	-71.263992
984.375000	-70.053345
1007.812500	-73.426109
1031.250000	-71.433952
1054.687500	-68.151581
1078.125000	-74.496819
1101.562500	-76.852501
1125.000000	-77.551277
1148.437500	-81.963631
1171.875000	-72.556641
1195.312500	-73.330589
1218.750000	-81.211136
1242.187500	-73.733665
1265.625000	-74.429810
1289.062500	-82.634186
1312.500000	-81.736641
1335.937500	-81.678719
1359.375000	-83.289688
1382.812500	-74.409157
1406.250000	-71.643471
1429.687500	-77.185394
1453.125000	-85.968437
1476.562500	-81.654633
1500.000000	-80.403198
1523.437500	-82.757164
1546.875000	-72.961212
1570.312500	-63.465107
1593.750000	-64.347534
1617.187500	-76.729507
1640.625000	-82.805061
1664.062500	-81.427002
1687.500000	-81.585724
1710.937500	-88.923668
1734.375000	-87.242653
1757.812500	-78.622238
1781.250000	-75.344879
1804.687500	-82.227875
1828.125000	-92.050529
1851.562500	-82.764244
1875.000000	-75.898880
1898.437500	-79.489418
1921.875000	-92.281708
1945.312500	-94.494064
1968.750000	-91.651871
1992.187500	-91.542915
2015.625000	-97.110321
2039.062500	-99.288544
2062.500000	-95.348152
2085.937500	-91.535065
2109.375000	-84.564102
2132.812500	-86.086166
2156.250000	-97.125328
2179.687500	-98.510796
2203.125000	-95.359474
2226.562500	-90.716881
2250.000000	-90.344208
2273.437500	-97.109810
2296.875000	-102.855782
2320.312500	-99.065041
2343.750000	-89.176018
2367.187500	-80.264008
2390.625000	-80.659248
2414.062500	-91.189781
2437.500000	-99.024673
2460.937500	-102.426422
2484.375000	-100.467583
2507.812500	-91.281769
2531.250000	-90.389526
2554.687500	-98.914139
2578.125000	-104.929008
2601.562500	-105.866501
2625.000000	-103.642998
2648.437500	-93.467972
2671.875000	-88.666077
2695.312500	-92.031937
2718.750000	-102.336052
2742.187500	-103.485039
2765.625000	-101.471809
2789.062500	-97.614189
2812.500000	-85.598083
2835.937500	-82.070946
2859.375000	-89.087631
2882.812500	-102.437668
2906.250000	-104.848534
2929.687500	-103.953697
2953.125000	-97.286133
2976.562500	-87.445473
3000.000000	-84.798584
3023.437500	-89.475540
3046.875000	-102.031898
3070.312500	-107.589493
3093.750000	-105.440971
3117.187500	-100.324188
3140.625000	-93.811775
3164.062500	-86.173500
3187.500000	-82.955284
3210.937500	-87.402176
3234.375000	-96.667313
3257.812500	-103.819756
3281.250000	-107.033798
3304.687500	-104.043892
3328.125000	-96.249947
3351.562500	-98.725494
3375.000000	-109.483749
3398.437500	-106.577805
3421.875000	-108.775230
3445.312500	-111.598534
3468.750000	-111.815521
3492.187500	-110.914307
3515.625000	-109.405083
3539.062500	-97.106651
3562.500000	-91.015938
3585.937500	-92.518143
3609.375000	-91.194885
3632.812500	-97.021027
3656.250000	-108.154434
3679.687500	-108.572708
3703.125000	-107.866974
3726.562500	-108.115662
3750.000000	-101.934517
3773.437500	-94.157570
3796.875000	-94.115868
3820.312500	-93.889008
3843.750000	-97.057877
3867.187500	-109.064819
3890.625000	-110.027603
3914.062500	-109.443665
3937.500000	-110.178497
3960.937500	-109.212418
3984.375000	-99.279099
4007.812500	-96.351982
4031.250000	-103.098190
4054.687500	-110.510551
4078.125000	-111.367683
4101.562500	-113.873283
4125.000000	-115.818802
4148.437500	-114.894707
4171.875000	-113.789284
4195.312500	-111.399078
4218.750000	-104.210205
4242.187500	-102.051620
4265.625000	-108.720840
4289.062500	-107.007133
4312.500000	-103.440804
4335.937500	-105.638634
4359.375000	-111.433159
4382.812500	-113.838898
4406.250000	-115.004906
4429.687500	-115.059212
4453.125000	-115.694061
4476.562500	-108.245743
4500.000000	-104.260643
4523.437500	-107.043488
4546.875000	-101.677544
4570.312500	-94.761246
4593.750000	-98.449120
4617.187500	-112.462593
4640.625000	-116.199501
4664.062500	-117.019691
4687.500000	-117.110840
4710.937500	-116.765800
4734.375000	-117.150124
4757.812500	-114.842995
4781.250000	-104.827179
4804.687500	-102.650330
4828.125000	-98.513649
4851.562500	-94.966873
4875.000000	-98.507423
4898.437500	-107.077881
4921.875000	-113.971687
4945.312500	-115.365952
4968.750000	-116.187508
4992.187500	-115.738487
5015.625000	-115.542435
5039.062500	-110.019661
5062.500000	-103.962006
5085.937500	-107.626205
5109.375000	-118.192863
5132.812500	-115.482262
5156.250000	-104.688370
5179.687500	-103.099258
5203.125000	-110.641533
5226.562500	-114.501701
5250.000000	-113.433830
5273.437500	-114.156784
5296.875000	-117.902641
5320.312500	-118.143700
5343.750000	-118.703232
5367.187500	-115.790894
5390.625000	-107.943291
5414.062500	-107.329636
5437.500000	-109.567932
5460.937500	-109.966515
5484.375000	-112.489967
5507.812500	-114.066460
5531.250000	-114.240074
5554.687500	-112.312103
5578.125000	-116.258987
5601.562500	-121.057304
5625.000000	-118.806320
5648.437500	-115.622292
5671.875000	-111.633743
5695.312500	-101.063629
5718.750000	-97.071350
5742.187500	-98.392876
5765.625000	-103.924255
5789.062500	-111.458588
5812.500000	-110.390549
5835.937500	-112.227882
5859.375000	-116.466263
5882.812500	-121.562202
5906.250000	-119.368843
5929.687500	-119.127304
5953.125000	-122.950485
5976.562500	-123.870110
6000.000000	-123.714569
6023.437500	-124.563461
6046.875000	-124.750854
6070.312500	-124.155945
6093.750000	-123.534782
6117.187500	-123.666153
6140.625000	-123.096855
6164.062500	-123.115074
6187.500000	-121.203217
6210.937500	-110.972549
6234.375000	-107.992294
6257.812500	-114.499931
6281.250000	-123.677238
6304.687500	-124.049339
6328.125000	-124.269630
6351.562500	-124.199066
6375.000000	-124.646088
6398.437500	-124.742043
6421.875000	-124.166359
6445.312500	-121.553909
6468.750000	-121.237671
6492.187500	-119.328026
6515.625000	-113.529556
6539.062500	-113.970100
6562.500000	-113.859482
6585.937500	-104.400703
6609.375000	-102.978104
6632.812500	-109.270241
6656.250000	-120.198692
6679.687500	-118.258057
6703.125000	-121.498863
6726.562500	-122.474487
6750.000000	-123.600471
6773.437500	-124.249474
6796.875000	-125.121788
6820.312500	-124.402702
6843.750000	-122.370796
6867.187500	-117.224419
6890.625000	-110.635147
6914.062500	-109.880653
6937.500000	-115.242004
6960.937500	-122.159004
6984.375000	-124.687500
7007.812500	-124.909912
7031.250000	-124.783325
7054.687500	-121.935532
7078.125000	-116.325829
7101.562500	-117.989693
7125.000000	-124.146568
7148.437500	-124.347549
7171.875000	-124.433838
7195.312500	-124.285271
7218.750000	-123.912407
7242.187500	-123.846039
7265.625000	-124.154968
7289.062500	-124.749077
7312.500000	-125.140633
7335.937500	-125.270638
7359.375000	-125.156967
7382.812500	-124.926811
7406.250000	-124.505135
7429.687500	-123.367332
7453.125000	-120.398842
7476.562500	-117.889183
7500.000000	-115.242043
7523.437500	-114.579178
7546.875000	-118.781395
7570.312500	-122.292534
7593.750000	-123.727509
7617.187500	-123.967941
7640.625000	-124.798828
7664.062500	-126.066208
7687.500000	-126.210320
7710.937500	-125.477463
7734.375000	-124.914551
7757.812500	-125.399223
7781.250000	-125.329102
7804.687500	-125.083572
7828.125000	-124.625404
7851.562500	-122.991905
7875.000000	-124.517365
7898.437500	-125.543068
7921.875000	-126.086433
7945.312500	-119.505692
7968.750000	-113.486740
7992.187500	-114.988953
8015.625000	-121.263298
8039.062500	-123.607040
8062.500000	-123.827774
8085.937500	-124.606255
8109.375000	-124.627861
8132.812500	-125.133675
8156.250000	-125.738853
8179.687500	-126.162766
8203.125000	-126.211609
8226.562500	-126.138092
8250.000000	-125.937775
8273.437500	-124.500610
8296.875000	-124.959816
8320.312500	-122.922203
8343.750000	-120.701622
8367.187500	-123.720879
8390.625000	-123.245850
8414.062500	-120.372169
8437.500000	-118.974014
8460.937500	-119.883110
8484.375000	-122.728493
8507.812500	-122.125740
8531.250000	-120.912994
8554.687500	-116.909966
8578.125000	-120.220673
8601.562500	-125.993195
8625.000000	-126.142632
8648.437500	-125.772041
8671.875000	-125.849625
8695.312500	-125.627205
8718.750000	-125.744019
8742.187500	-126.065796
8765.625000	-126.711380
8789.062500	-126.908058
8812.500000	-127.058960
8835.937500	-126.628326
8859.375000	-126.558929
8882.812500	-126.167076
8906.250000	-126.206841
8929.687500	-126.441940
8953.125000	-126.706848
8976.562500	-126.845566
9000.000000	-126.765785
9023.437500	-126.985985
9046.875000	-126.886604
9070.312500	-125.709084
9093.750000	-121.724304
9117.187500	-120.620506
9140.625000	-123.631912
9164.062500	-125.983162
9187.500000	-126.690323
9210.937500	-127.020218
9234.375000	-126.966698
9257.812500	-127.083679
9281.250000	-127.033119
9304.687500	-127.133034
9328.125000	-127.307129
9351.562500	-127.561630
9375.000000	-127.308159
9398.437500	-126.973549
9421.875000	-126.818001
9445.312500	-127.087234
9468.750000	-127.281776
9492.187500	-127.040352
9515.625000	-127.365158
9539.062500	-127.484848
9562.500000	-127.168358
9585.937500	-127.037872
9609.375000	-126.933014
9632.812500	-126.590576
9656.250000	-126.825394
9679.687500	-127.045181
9703.125000	-126.875801
9726.562500	-127.171974
9750.000000	-127.516617
9773.437500	-127.925972
9796.875000	-127.845306
9820.312500	-127.551498
9843.750000	-126.691177
9867.187500	-126.126907
9890.625000	-125.498672
9914.062500	-125.939354
9937.500000	-127.159355
9960.937500	-127.752090
9984.375000	-127.615395
10007.812500	-127.744911
10031.250000	-127.689743
10054.687500	-127.681190
10078.125000	-127.788429
10101.562500	-127.751511
10125.000000	-127.778923
10148.437500	-127.013176
10171.875000	-127.204620
10195.312500	-127.863037
10218.750000	-127.924072
10242.187500	-127.069504
10265.625000	-124.115601
10289.062500	-121.610939
10312.500000	-122.368469
10335.937500	-127.249901
10359.375000	-127.469612
10382.812500	-127.529579
10406.250000	-127.091820
10429.687500	-127.073616
10453.125000	-126.769165
10476.562500	-127.423553
10500.000000	-127.978798
10523.437500	-128.028320
10546.875000	-128.115173
10570.312500	-128.123184
10593.750000	-128.083633
10617.187500	-127.995857
10640.625000	-128.236359
10664.062500	-128.182434
10687.500000	-127.803429
10710.937500	-127.852219
10734.375000	-127.940750
10757.812500	-127.898758
10781.250000	-127.819756
10804.687500	-128.138229
10828.125000	-128.310898
10851.562500	-128.394058
10875.000000	-128.464203
10898.437500	-128.542267
10921.875000	-128.388870
10945.312500	-128.335693
10968.750000	-128.420547
10992.187500	-128.261307
11015.625000	-128.127762
11039.062500	-128.272369
11062.500000	-128.172318
11085.937500	-128.215271
11109.375000	-128.083801
11132.812500	-128.235764
11156.250000	-128.301605
11179.687500	-127.819519
11203.125000	-127.765915
11226.562500	-127.980179
11250.000000	-128.321701
11273.437500	-128.304825
11296.875000	-127.996262
11320.312500	-127.911873
11343.750000	-128.121674
11367.187500	-128.283981
11390.625000	-128.007889
11414.062500	-127.743256
11437.500000	-128.111053
11460.937500	-128.366211
11484.375000	-128.449997
11507.812500	-128.395004
11531.250000	-128.508759
11554.687500	-128.398239
11578.125000	-128.428986
11601.562500	-128.625717
11625.000000	-128.684753
11648.437500	-128.596954
11671.875000	-128.521408
11695.312500	-128.511856
11718.750000	-128.396484
11742.187500	-128.460480
11765.625000	-128.610260
11789.062500	-128.621719
11812.500000	-128.476608
11835.937500	-128.506927
11859.375000	-128.534622
11882.812500	-128.535355
11906.250000	-128.671158
11929.687500	-128.712250
11953.125000	-128.650269
11976.562500	-128.432083
12000.000000	-128.219299
12023.437500	-128.228363
12046.875000	-128.191010
12070.312500	-128.337143
12093.750000	-128.366180
12117.187500	-128.439560
12140.625000	-128.470749
12164.062500	-128.459641
12187.500000	-128.482971
12210.937500	-128.613251
12234.375000	-128.703781
12257.812500	-128.689758
12281.250000	-128.660522
12304.687500	-128.478256
12328.125000	-128.425873
12351.562500	-128.530411
12375.000000	-128.344971
12398.437500	-128.452362
12421.875000	-128.473343
12445.312500	-128.584244
12468.750000	-128.821213
12492.187500	-128.776901
12515.625000	-128.650986
12539.062500	-128.509186
12562.500000	-128.223984
12585.937500	-128.400330
12609.375000	-128.203751
12632.812500	-128.417618
12656.250000	-128.653214
12679.687500	-128.609665
12703.125000	-128.528412
12726.562500	-128.450577
12750.000000	-128.437927
12773.437500	-128.294800
12796.875000	-128.390808
12820.312500	-128.491608
12843.750000	-128.462784
12867.187500	-128.515350
12890.625000	-128.679337
12914.062500	-128.544739
12937.500000	-128.466675
12960.937500	-128.473099
12984.375000	-128.540115
13007.812500	-128.595840
13031.250000	-128.743454
13054.687500	-128.637527
13078.125000	-128.738892
13101.562500	-128.871887
13125.000000	-128.874603
13148.437500	-128.855408
13171.875000	-128.736877
13195.312500	-128.628159
13218.750000	-128.651398
13242.187500	-128.725830
13265.625000	-128.786880
13289.062500	-128.765198
13312.500000	-128.804337
13335.937500	-128.782120
13359.375000	-128.692413
13382.812500	-128.662369
13406.250000	-128.752060
13429.687500	-128.950256
13453.125000	-129.022537
13476.562500	-128.873840
13500.000000	-128.684616
13523.437500	-128.782761
13546.875000	-128.703262
13570.312500	-128.681061
13593.750000	-128.745819
13617.187500	-128.737640
13640.625000	-128.666962
13664.062500	-128.270401
13687.500000	-127.943085
13710.937500	-128.435196
13734.375000	-128.709412
13757.812500	-128.750198
13781.250000	-128.701294
13804.687500	-128.707748
13828.125000	-128.685913
13851.562500	-128.524353
13875.000000	-128.560928
13898.437500	-128.553131
13921.875000	-128.494263
13945.312500	-128.593994
13968.750000	-128.653122
13992.187500	-128.799545
14015.625000	-128.852097
14039.062500	-128.725952
14062.500000	-128.588425
14085.937500	-128.626190
14109.375000	-128.283157
14132.812500	-127.959175
14156.250000	-127.597382
14179.687500	-128.303207
14203.125000	-128.815643
14226.562500	-128.956161
14250.000000	-128.842972
14273.437500	-128.903046
14296.875000	-128.964798
14320.312500	-128.837906
14343.750000	-128.834442
14367.187500	-128.593613
14390.625000	-128.811005
14414.062500	-128.950684
14437.500000	-128.903778
14460.937500	-128.929733
14484.375000	-128.922302
14507.812500	-128.935364
14531.250000	-128.912552
14554.687500	-128.887344
14578.125000	-128.888168
14601.562500	-128.877014
14625.000000	-128.985733
14648.437500	-129.050034
14671.875000	-128.963089
14695.312500	-128.880539
14718.750000	-128.843658
14742.187500	-128.956909
14765.625000	-128.847687
14789.062500	-128.793610
14812.500000	-128.939133
14835.937500	-128.896072
14859.375000	-128.916199
14882.812500	-128.929321
14906.250000	-128.943863
14929.687500	-128.878281
14953.125000	-128.793747
14976.562500	-128.870605
15000.000000	-128.884140
15023.437500	-128.903778
15046.875000	-128.934464
15070.312500	-128.862167
15093.750000	-128.884247
15117.187500	-129.015778
15140.625000	-129.142899
15164.062500	-128.917770
15187.500000	-128.818176
15210.937500	-128.817627
15234.375000	-128.845505
15257.812500	-128.970123
15281.250000	-128.998291
15304.687500	-129.027435
15328.125000	-128.950073
15351.562500	-128.906097
15375.000000	-128.906754
15398.437500	-128.927750
15421.875000	-128.884857
15445.312500	-128.770691
15468.750000	-128.747406
15492.187500	-128.895386
15515.625000	-129.044846
15539.062500	-129.057587
15562.500000	-129.007141
15585.937500	-128.921600
15609.375000	-128.997986
15632.812500	-129.003082
15656.250000	-128.916565
15679.687500	-128.890198
15703.125000	-128.915497
15726.562500	-128.890472
15750.000000	-128.927322
15773.437500	-129.027222
15796.875000	-129.114273
15820.312500	-129.115051
15843.750000	-129.114655
15867.187500	-129.075424
15890.625000	-129.073837
15914.062500	-129.009521
15937.500000	-129.190674
15960.937500	-129.048386
15984.375000	-129.051590
16007.812500	-129.136765
16031.250000	-128.956039
16054.687500	-129.066818
16078.125000	-129.107742
16101.562500	-128.971939
16125.000000	-129.073090
16148.437500	-129.161942
16171.875000	-129.094315
16195.312500	-129.013748
16218.750000	-128.992661
16242.187500	-129.085358
16265.625000	-129.067551
16289.062500	-128.985840
16312.500000	-129.043945
16335.937500	-129.068329
16359.375000	-129.027115
16382.812500	-128.943985
16406.250000	-128.999283
16429.687500	-129.135635
16453.125000	-129.161469
16476.562500	-129.113968
16500.000000	-129.039597
16523.437500	-129.173248
16546.875000	-129.124054
16570.312500	-128.965179
16593.750000	-128.982254
16617.187500	-129.081848
16640.625000	-129.075623
16664.062500	-129.091660
16687.500000	-128.989441
16710.937500	-129.072052
16734.375000	-129.088623
16757.812500	-129.028900
16781.250000	-129.044266
16804.687500	-129.020432
16828.125000	-128.979095
16851.562500	-129.123764
16875.000000	-129.119293
16898.437500	-129.036606
16921.875000	-129.016068
16945.312500	-129.090591
16968.750000	-129.039413
16992.187500	-129.092087
17015.625000	-129.040482
17039.062500	-129.027512
17062.500000	-129.129166
17085.937500	-129.212296
17109.375000	-129.122772
17132.812500	-129.083481
17156.250000	-129.096008
17179.687500	-129.055298
17203.125000	-129.203491
17226.562500	-129.212814
17250.000000	-129.085724
17273.437500	-129.071716
17296.875000	-129.006989
17320.312500	-129.077408
17343.750000	-129.068054
17367.187500	-129.125275
17390.625000	-129.115662
17414.062500	-129.039200
17437.500000	-128.971985
17460.937500	-129.001328
17484.375000	-129.084122
17507.812500	-129.104431
17531.250000	-129.163147
17554.687500	-129.060318
17578.125000	-128.994156
17601.562500	-128.991684
17625.000000	-128.946289
17648.437500	-128.984467
17671.875000	-128.908356
17695.312500	-128.980957
17718.750000	-128.958679
17742.187500	-128.976410
17765.625000	-128.982681
17789.062500	-128.918976
17812.500000	-129.096100
17835.937500	-129.146317
17859.375000	-129.131607
17882.812500	-129.143631
17906.250000	-129.048416
17929.687500	-129.020584
17953.125000	-129.080002
17976.562500	-128.978439
18000.000000	-128.778870
18023.437500	-128.957977
18046.875000	-129.069107
18070.312500	-129.113403
18093.750000	-129.152283
18117.187500	-129.161438
18140.625000	-129.164261
18164.062500	-129.087830
18187.500000	-129.175629
18210.937500	-129.237167
18234.375000	-129.172699
18257.812500	-129.146301
18281.250000	-129.036331
18304.687500	-129.141205
18328.125000	-129.249344
18351.562500	-129.169952
18375.000000	-129.119278
18398.437500	-129.057297
18421.875000	-129.167419
18445.312500	-129.123459
18468.750000	-129.105362
18492.187500	-129.143997
18515.625000	-129.112198
18539.062500	-129.109818
18562.500000	-129.126175
18585.937500	-129.187027
18609.375000	-129.083267
18632.812500	-129.138809
18656.250000	-129.094604
18679.687500	-129.097733
18703.125000	-129.093796
18726.562500	-129.046921
18750.000000	-129.073654
18773.437500	-129.065460
18796.875000	-129.007523
18820.312500	-129.047989
18843.750000	-129.053070
18867.187500	-129.117172
18890.625000	-129.099930
18914.062500	-129.087723
18937.500000	-129.129532
18960.937500	-129.176224
18984.375000	-129.217392
19007.812500	-129.026291
19031.250000	-128.891022
19054.687500	-128.853043
19078.125000	-128.479843
19101.562500	-128.129288
19125.000000	-127.228851
19148.437500	-126.295494
19171.875000	-125.144661
19195.312500	-124.988083
19218.750000	-126.364250
19242.187500	-127.002266
19265.625000	-127.054466
19289.062500	-127.413811
19312.500000	-127.221092
19335.937500	-127.650101
19359.375000	-128.043457
19382.812500	-128.246140
19406.250000	-128.347183
19429.687500	-128.645401
19453.125000	-128.812531
19476.562500	-128.718307
19500.000000	-128.610397
19523.437500	-128.892487
19546.875000	-128.960770
19570.312500	-128.874557
19593.750000	-128.980728
19617.187500	-128.952545
19640.625000	-128.942627
19664.062500	-129.044037
19687.500000	-128.946518
19710.937500	-129.013199
19734.375000	-129.094666
19757.812500	-128.917114
19781.250000	-128.903778
19804.687500	-128.966949
19828.125000	-129.043823
19851.562500	-129.055862
19875.000000	-129.185638
19898.437500	-129.168793
19921.875000	-129.122604
19945.312500	-129.141769
19968.750000	-129.152771
19992.187500	-129.059616
20015.625000	-129.079346
20039.062500	-129.039703
20062.500000	-129.063522
20085.937500	-129.019455
20109.375000	-128.908630
20132.812500	-128.329987
20156.250000	-128.892380
20179.687500	-129.025986
20203.125000	-129.005920
20226.562500	-129.116394
20250.000000	-129.112808
20273.437500	-129.052139
20296.875000	-128.972260
20320.312500	-128.998322
20343.750000	-129.063934
20367.187500	-129.046890
20390.625000	-129.010056
20414.062500	-128.996216
20437.500000	-129.139236
20460.937500	-129.104126
20484.375000	-129.121597
20507.812500	-129.119507
20531.250000	-129.083405
20554.687500	-129.088455
20578.125000	-129.086517
20601.562500	-129.034836
20625.000000	-129.121307
20648.437500	-129.100098
20671.875000	-129.105392
20695.312500	-129.154770
20718.750000	-129.067123
20742.187500	-129.003143
20765.625000	-129.048950
20789.062500	-129.119171
20812.500000	-129.203552
20835.937500	-129.150330
20859.375000	-129.230179
20882.812500	-129.244965
20906.250000	-129.205246
20929.687500	-129.116714
20953.125000	-129.080353
20976.562500	-129.032837
21000.000000	-128.842606
21023.437500	-128.983856
21046.875000	-129.017242
21070.312500	-129.045837
21093.750000	-129.014236
21117.187500	-129.102493
21140.625000	-129.134384
21164.062500	-128.973358
21187.500000	-129.080231
21210.937500	-129.076904
21234.375000	-129.102997
21257.812500	-129.075302
21281.250000	-129.058441
21304.687500	-129.025208
21328.125000	-129.100815
21351.562500	-129.131058
21375.000000	-129.100708
21398.437500	-129.105194
21421.875000	-129.122726
21445.312500	-129.116791
21468.750000	-129.070618
21492.187500	-129.036057
21515.625000	-129.070145
21539.062500	-129.146286
21562.500000	-129.022919
21585.937500	-129.096115
21609.375000	-129.150833
21632.812500	-129.032761
21656.250000	-129.031540
21679.687500	-129.105408
21703.125000	-129.101440
21726.562500	-128.963547
21750.000000	-129.006409
21773.437500	-129.083115
21796.875000	-129.151901
21820.312500	-129.061523
21843.750000	-129.069351
21867.187500	-129.115936
21890.625000	-129.194839
21914.062500	-129.179367
21937.500000	-129.193756
21960.937500	-129.104263
21984.375000	-129.041672
22007.812500	-129.031845
22031.250000	-129.121323
22054.687500	-129.178406
22078.125000	-129.090561
22101.562500	-129.061081
22125.000000	-129.014832
22148.437500	-129.012619
22171.875000	-128.877335
22195.312500	-128.894379
22218.750000	-128.953690
22242.187500	-128.972916
22265.625000	-129.001724
22289.062500	-128.960892
22312.500000	-128.929901
22335.937500	-128.973099
22359.375000	-128.914566
22382.812500	-128.961548
22406.250000	-128.922989
22429.687500	-128.873322
22453.125000	-129.029984
22476.562500	-129.042923
22500.000000	-128.892761
22523.437500	-129.006424
22546.875000	-129.009796
22570.312500	-129.108047
22593.750000	-129.000046
22617.187500	-128.884109
22640.625000	-129.005447
22664.062500	-129.002991
22687.500000	-128.950226
22710.937500	-128.923340
22734.375000	-128.936172
22757.812500	-128.870956
22781.250000	-128.971161
22804.687500	-128.949249
22828.125000	-128.822525
22851.562500	-128.872223
22875.000000	-129.003677
22898.437500	-129.038864
22921.875000	-129.070312
22945.312500	-129.018250
22968.750000	-128.965851
22992.187500	-129.010162
23015.625000	-129.050613
23039.062500	-129.051300
23062.500000	-129.063858
23085.937500	-128.977280
23109.375000	-129.039856
23132.812500	-129.001541
23156.250000	-129.012024
23179.687500	-129.025665
23203.125000	-129.121628
23226.562500	-129.017670
23250.000000	-129.009857
23273.437500	-129.000244
23296.875000	-129.044083
23320.312500	-129.001358
23343.750000	-129.052002
23367.187500	-129.085770
23390.625000	-129.093582
23414.062500	-129.093170
23437.500000	-129.157059
23460.937500	-129.072021
23484.375000	-129.003845
23507.812500	-128.958878
23531.250000	-128.966095
23554.687500	-128.961182
23578.125000	-128.935959
23601.562500	-128.918854
23625.000000	-128.885834
23648.437500	-128.920776
23671.875000	-128.921921
23695.312500	-128.974487
23718.750000	-128.952774
23742.187500	-128.966248
23765.625000	-129.030899
23789.062500	-129.018234
23812.500000	-129.053940
23835.937500	-129.024857
23859.375000	-128.992722
23882.812500	-128.996948
23906.250000	-129.116165
23929.687500	-129.105011
23953.125000	-129.011475
23976.562500	-129.008652
24000.000000	-129.015686
24023.437500	-128.974136
24046.875000	-129.044098
24070.312500	-129.012131
24093.750000	-128.994263
24117.187500	-129.020096
24140.625000	-129.040497
24164.062500	-129.042313
24187.500000	-128.976227
24210.937500	-129.140625
24234.375000	-129.271286
24257.812500	-129.088547
24281.250000	-129.052322
24304.687500	-129.030594
24328.125000	-129.025696
24351.562500	-129.030243
24375.000000	-129.036331
24398.437500	-129.040207
24421.875000	-129.050018
24445.312500	-129.058411
24468.750000	-129.001282
24492.187500	-129.061218
24515.625000	-129.053696
24539.062500	-129.010040
24562.500000	-128.969193
24585.937500	-128.959595
24609.375000	-128.891266
24632.812500	-129.082596
24656.250000	-129.094437
24679.687500	-128.924042
24703.125000	-128.981171
24726.562500	-129.023956
24750.000000	-128.967056
24773.437500	-129.011124
24796.875000	-129.006577
24820.312500	-128.943283
24843.750000	-128.962372
24867.187500	-129.021561
24890.625000	-128.991974
24914.062500	-128.947876
24937.500000	-128.981522
24960.937500	-128.960297
24984.375000	-129.007217
25007.812500	-129.041534
25031.250000	-128.988358
25054.687500	-129.071152
25078.125000	-129.014206
25101.562500	-128.998260
25125.000000	-129.065216
25148.437500	-129.054230
25171.875000	-129.160675
25195.312500	-129.025528
25218.750000	-129.015488
25242.187500	-129.002167
25265.625000	-128.961823
25289.062500	-128.972321
25312.500000	-129.032425
25335.937500	-128.969833
25359.375000	-128.908646
25382.812500	-128.976608
25406.250000	-128.970886
25429.687500	-128.946289
25453.125000	-128.975540
25476.562500	-129.024353
25500.000000	-128.990509
25523.437500	-129.059875
25546.875000	-129.123306
25570.312500	-129.048370
25593.750000	-129.091354
25617.187500	-129.033569
25640.625000	-129.045822
25664.062500	-129.061081
25687.500000	-129.081863
25710.937500	-128.907761
25734.375000	-128.956253
25757.812500	-128.995010
25781.250000	-129.005447
25804.687500	-128.947037
25828.125000	-128.912369
25851.562500	-128.973480
25875.000000	-129.040848
25898.437500	-129.068237
25921.875000	-129.046555
25945.312500	-128.976501
25968.750000	-128.886902
25992.187500	-128.857468
26015.625000	-128.860962
26039.062500	-128.920486
26062.500000	-129.005325
26085.937500	-128.916397
26109.375000	-128.945816
26132.812500	-129.027634
26156.250000	-129.032806
26179.687500	-129.024155
26203.125000	-129.147125
26226.562500	-129.092789
26250.000000	-129.029587
26273.437500	-128.954086
26296.875000	-128.930786
26320.312500	-129.001328
26343.750000	-128.842636
26367.187500	-128.939560
26390.625000	-128.984009
26414.062500	-128.929276
26437.500000	-128.834595
26460.937500	-128.782135
26484.375000	-128.872345
26507.812500	-128.929825
26531.250000	-128.908691
26554.687500	-128.929382
26578.125000	-128.929077
26601.562500	-128.944550
26625.000000	-129.102310
26648.437500	-129.069870
26671.875000	-128.976227
26695.312500	-129.024124
26718.750000	-129.062317
26742.187500	-128.998596
26765.625000	-128.942780
26789.062500	-128.874115
26812.500000	-128.872879
26835.937500	-128.890350
26859.375000	-128.952515
26882.812500	-128.937653
26906.250000	-128.921555
26929.687500	-128.961044
26953.125000	-129.001709
26976.562500	-129.052353
27000.000000	-129.031448
27023.437500	-128.938461
27046.875000	-128.938431
27070.312500	-128.940704
27093.750000	-128.846115
27117.187500	-128.976395
27140.625000	-129.009537
27164.062500	-128.983521
27187.500000	-128.909882
27210.937500	-128.922577
27234.375000	-128.964508
27257.812500	-128.895554
27281.250000	-128.849823
27304.687500	-128.973053
27328.125000	-129.039185
27351.562500	-128.977402
27375.000000	-128.928467
27398.437500	-128.931976
27421.875000	-128.917908
27445.312500	-128.994522
27468.750000	-128.943024
27492.187500	-129.002426
27515.625000	-128.946732
27539.062500	-128.929276
27562.500000	-128.803009
27585.937500	-128.814972
27609.375000	-128.886185
27632.812500	-128.940918
27656.250000	-128.911697
27679.687500	-128.820694
27703.125000	-128.861252
27726.562500	-128.967834
27750.000000	-128.948517
27773.437500	-128.928314
27796.875000	-128.940414
27820.312500	-128.976807
27843.750000	-129.010696
27867.187500	-129.000000
27890.625000	-128.959396
27914.062500	-128.838242
27937.500000	-128.840317
27960.937500	-128.836456
27984.375000	-128.807602
28007.812500	-128.720245
28031.250000	-128.804108
28054.687500	-128.801117
28078.125000	-128.778122
28101.562500	-128.827301
28125.000000	-128.819962
28148.437500	-128.958054
28171.875000	-128.977692
28195.312500	-128.885300
28218.750000	-128.986145
28242.187500	-128.984131
28265.625000	-128.950928
28289.062500	-128.936783
28312.500000	-128.893082
28335.937500	-128.938507
28359.375000	-128.944000
28382.812500	-128.985748
28406.250000	-129.080765
28429.687500	-129.154251
28453.125000	-129.046951
28476.562500	-128.973587
28500.000000	-128.969879
28523.437500	-128.861511
28546.875000	-128.891174
28570.312500	-128.914368
28593.750000	-128.911224
28617.187500	-128.853210
28640.625000	-128.900940
28664.062500	-128.930435
28687.500000	-129.001389
28710.937500	-128.953979
28734.375000	-128.913239
28757.812500	-128.928421
28781.250000	-128.884247
28804.687500	-128.832794
28828.125000	-128.833511
28851.562500	-128.963165
28875.000000	-128.899109
28898.437500	-128.808899
28921.875000	-128.833725
28945.312500	-128.918396
28968.750000	-129.002686
28992.187500	-128.907715
29015.625000	-128.848831
29039.062500	-128.892715
29062.500000	-128.878479
29085.937500	-128.833878
29109.375000	-128.829193
29132.812500	-128.849243
29156.250000	-128.897903
29179.687500	-128.900940
29203.125000	-128.848175
29226.562500	-128.777725
29250.000000	-128.859482
29273.437500	-128.960571
29296.875000	-128.868301
29320.312500	-128.811020
29343.750000	-128.880463
29367.187500	-128.856796
29390.625000	-128.872009
29414.062500	-128.992157
29437.500000	-128.960861
29460.937500	-128.835953
29484.375000	-128.841629
29507.812500	-128.844772
29531.250000	-128.815536
29554.687500	-128.873627
29578.125000	-128.862183
29601.562500	-128.848358
29625.000000	-128.913345
29648.437500	-128.951447
29671.875000	-128.940872
29695.312500	-128.880173
29718.750000	-128.872437
29742.187500	-128.924911
29765.625000	-129.079971
29789.062500	-128.976303
29812.500000	-128.893875
29835.937500	-128.889908
29859.375000	-128.853500
29882.812500	-128.816162
29906.250000	-128.891037
29929.687500	-128.868500
29953.125000	-128.845139
29976.562500	-128.939957
30000.000000	-128.874313
30023.437500	-128.968384
30046.875000	-128.923187
30070.312500	-128.910721
30093.750000	-129.030746
30117.187500	-128.970184
30140.625000	-128.812134
30164.062500	-128.726990
30187.500000	-128.822296
30210.937500	-128.949463
30234.375000	-128.945358
30257.812500	-128.923508
30281.250000	-129.003464
30304.687500	-128.891098
30328.125000	-128.868668
30351.562500	-128.951599
30375.000000	-128.940430
30398.437500	-128.907059
30421.875000	-128.977875
30445.312500	-129.047241
30468.750000	-128.849838
30492.187500	-129.017807
30515.625000	-129.002701
30539.062500	-128.940613
30562.500000	-128.950989
30585.937500	-129.004578
30609.375000	-128.977829
30632.812500	-128.913116
30656.250000	-128.794373
30679.687500	-128.862427
30703.125000	-128.920364
30726.562500	-128.784454
30750.000000	-128.828827
30773.437500	-128.841995
30796.875000	-128.783340
30820.312500	-128.911041
30843.750000	-128.929749
30867.187500	-128.943527
30890.625000	-128.834885
30914.062500	-128.811707
30937.500000	-128.922928
30960.937500	-128.920929
30984.375000	-128.967026
31007.812500	-128.894852
31031.250000	-128.908859
31054.687500	-128.909180
31078.125000	-128.825272
31101.562500	-128.787125
31125.000000	-128.814499
31148.437500	-128.819519
31171.875000	-128.908722
31195.312500	-128.952133
31218.750000	-128.924164
31242.187500	-128.877716
31265.625000	-128.848206
31289.062500	-128.830658
31312.500000	-128.851944
31335.937500	-128.874664
31359.375000	-128.909927
31382.812500	-128.831131
31406.250000	-128.940582
31429.687500	-128.940796
31453.125000	-128.963516
31476.562500	-128.793594
31500.000000	-128.715973
31523.437500	-128.910660
31546.875000	-128.894211
31570.312500	-128.811432
31593.750000	-128.858688
31617.187500	-128.898849
31640.625000	-128.847748
31664.062500	-128.919113
31687.500000	-128.857635
31710.937500	-128.811890
31734.375000	-128.847656
31757.812500	-128.912643
31781.250000	-128.920029
31804.687500	-128.894501
31828.125000	-128.965668
31851.562500	-129.029022
31875.000000	-128.907089
31898.437500	-128.832382
31921.875000	-128.875351
31945.312500	-128.869949
31968.750000	-128.809296
31992.187500	-128.823044
32015.625000	-128.983093
32039.062500	-128.879364
32062.500000	-128.863220
32085.937500	-128.817032
32109.375000	-128.711716
32132.812500	-128.740204
32156.250000	-128.861969
32179.687500	-128.820724
32203.125000	-128.777069
32226.562500	-128.899445
32250.000000	-128.842331
32273.437500	-128.857681
32296.875000	-128.897797
32320.312500	-128.870102
32343.750000	-128.877243
32367.187500	-128.854218
32390.625000	-128.821884
32414.062500	-128.824051
32437.500000	-128.807236
32460.937500	-128.936569
32484.375000	-128.916306
32507.812500	-128.794815
32531.250000	-128.773300
32554.687500	-128.798157
32578.125000	-128.859955
32601.562500	-128.862808
32625.000000	-128.850723
32648.437500	-128.860046
32671.875000	-128.874710
32695.312500	-128.790085
32718.750000	-128.795639
32742.187500	-128.754074
32765.625000	-128.766907
32789.062500	-128.839355
32812.500000	-128.919174
32835.937500	-128.850159
32859.375000	-128.883484
32882.812500	-128.797180
32906.250000	-128.888351
32929.687500	-128.867096
32953.125000	-128.773422
32976.562500	-128.839432
33000.000000	-128.725189
33023.437500	-128.730759
33046.875000	-128.771149
33070.312500	-128.750153
33093.750000	-128.775681
33117.187500	-128.848740
33140.625000	-128.809372
33164.062500	-128.885193
33187.500000	-128.875916
33210.937500	-128.851059
33234.375000	-128.833038
33257.812500	-128.762360
33281.250000	-128.875595
33304.687500	-128.772339
33328.125000	-128.745468
33351.562500	-128.873703
33375.000000	-128.859772
33398.437500	-128.891266
33421.875000	-128.855774
33445.312500	-128.746216
33468.750000	-128.774399
33492.187500	-128.793549
33515.625000	-128.809952
33539.062500	-128.801147
33562.500000	-128.827332
33585.937500	-128.911118
33609.375000	-128.897766
33632.812500	-128.838272
33656.250000	-128.805084
33679.687500	-128.796158
33703.125000	-128.835266
33726.562500	-128.758743
33750.000000	-128.785278
33773.437500	-128.791565
33796.875000	-128.732819
33820.312500	-128.760132
33843.750000	-128.829407
33867.187500	-128.745636
33890.625000	-128.602509
33914.062500	-128.736420
33937.500000	-128.736130
33960.937500	-128.780869
33984.375000	-128.856598
34007.812500	-128.846695
34031.250000	-128.848877
34054.687500	-128.759293
34078.125000	-128.739517
34101.562500	-128.820572
34125.000000	-128.807846
34148.437500	-128.847733
34171.875000	-128.832520
34195.312500	-128.772415
34218.750000	-128.807556
34242.187500	-128.840088
34265.625000	-128.876999
34289.062500	-128.745377
34312.500000	-128.743301
34335.937500	-128.745331
34359.375000	-128.767868
34382.812500	-128.715103
34406.250000	-128.753448
34429.687500	-128.724258
34453.125000	-128.746674
34476.562500	-128.767014
34500.000000	-128.680435
34523.437500	-128.705917
34546.875000	-128.758942
34570.312500	-128.710724
34593.750000	-128.727982
34617.187500	-128.790100
34640.625000	-128.715103
34664.062500	-128.775803
34687.500000	-128.766357
34710.937500	-128.695709
34734.375000	-128.725082
34757.812500	-128.752640
34781.250000	-128.839218
34804.687500	-128.818695
34828.125000	-128.808853
34851.562500	-128.727448
34875.000000	-128.860657
34898.437500	-128.914459
34921.875000	-128.750809
34945.312500	-128.703415
34968.750000	-128.891724
34992.187500	-128.792343
35015.625000	-128.713943
35039.062500	-128.733505
35062.500000	-128.635620
35085.937500	-128.638321
35109.375000	-128.805634
35132.812500	-128.734192
35156.250000	-128.748978
35179.687500	-128.803009
35203.125000	-128.849503
35226.562500	-128.746506
35250.000000	-128.693130
35273.437500	-128.660385
35296.875000	-128.635269
35320.312500	-128.601334
35343.750000	-128.712662
35367.187500	-128.753220
35390.625000	-128.611664
35414.062500	-128.636139
35437.500000	-128.650406
35460.937500	-128.587189
35484.375000	-128.553024
35507.812500	-128.530609
35531.250000	-128.438980
35554.687500	-128.536713
35578.125000	-128.690872
35601.562500	-128.654037
35625.000000	-128.633850
35648.437500	-128.719528
35671.875000	-128.755798
35695.312500	-128.700912
35718.750000	-128.728302
35742.187500	-128.731323
35765.625000	-128.705627
35789.062500	-128.826309
35812.500000	-128.750977
35835.937500	-128.769684
35859.375000	-128.817398
35882.812500	-128.771667
35906.250000	-128.860367
35929.687500	-128.795624
35953.125000	-128.740067
35976.562500	-128.809921
36000.000000	-128.806931
36023.437500	-128.794312
36046.875000	-128.747787
36070.312500	-128.774323
36093.750000	-128.812363
36117.187500	-128.835602
36140.625000	-128.773178
36164.062500	-128.815094
36187.500000	-128.806580
36210.937500	-128.731232
36234.375000	-128.892593
36257.812500	-128.708237
36281.250000	-128.599167
36304.687500	-128.702667
36328.125000	-128.708054
36351.562500	-128.612671
36375.000000	-128.576462
36398.437500	-128.665543
36421.875000	-128.727768
36445.312500	-128.802567
36468.750000	-128.741257
36492.187500	-128.744904
36515.625000	-128.752136
36539.062500	-128.740555
36562.500000	-128.713272
36585.937500	-128.745453
36609.375000	-128.796509
36632.812500	-128.846695
36656.250000	-128.851227
36679.687500	-128.752686
36703.125000	-128.707306
36726.562500	-128.612900
36750.000000	-128.613251
36773.437500	-128.668076
36796.875000	-128.794189
36820.312500	-128.801758
36843.750000	-128.872681
36867.187500	-128.809937
36890.625000	-128.763412
36914.062500	-128.706421
36937.500000	-128.736221
36960.937500	-128.756775
36984.375000	-128.716721
37007.812500	-128.716919
37031.250000	-128.707443
37054.687500	-128.710953
37078.125000	-128.799255
37101.562500	-128.808655
37125.000000	-128.802841
37148.437500	-128.790802
37171.875000	-128.776215
37195.312500	-128.747803
37218.750000	-128.736542
37242.187500	-128.754089
37265.625000	-128.716568
37289.062500	-128.788620
37312.500000	-128.765060
37335.937500	-128.721542
37359.375000	-128.733307
37382.812500	-128.682571
37406.250000	-128.684280
37429.687500	-128.748718
37453.125000	-128.694824
37476.562500	-128.627213
37500.000000	-128.637634
37523.437500	-128.551193
37546.875000	-128.559036
37570.312500	-128.661194
37593.750000	-128.636841
37617.187500	-128.577133
37640.625000	-128.639282
37664.062500	-128.752335
37687.500000	-128.652924
37710.937500	-128.608307
37734.375000	-128.721802
37757.812500	-128.676697
37781.250000	-128.721909
37804.687500	-128.750061
37828.125000	-128.739532
37851.562500	-128.632706
37875.000000	-128.599319
37898.437500	-128.612946
37921.875000	-128.551926
37945.312500	-128.565735
37968.750000	-128.670593
37992.187500	-128.677536
38015.625000	-128.722168
38039.062500	-128.715652
38062.500000	-128.718216
38085.937500	-128.692429
38109.375000	-128.707703
38132.812500	-128.609802
38156.250000	-128.580246
38179.687500	-128.566589
38203.125000	-128.542694
38226.562500	-128.334915
38250.000000	-128.147354
38273.437500	-128.219513
38296.875000	-127.807068
38320.312500	-127.861397
38343.750000	-128.215805
38367.187500	-128.302094
38390.625000	-128.273590
38414.062500	-128.074265
38437.500000	-128.178391
38460.937500	-128.168381
38484.375000	-128.130997
38507.812500	-128.349258
38531.250000	-128.337448
38554.687500	-128.357330
38578.125000	-128.475342
38601.562500	-128.405762
38625.000000	-128.442230
38648.437500	-128.467682
38671.875000	-128.515610
38695.312500	-128.588455
38718.750000	-128.606888
38742.187500	-128.487839
38765.625000	-128.442337
38789.062500	-128.460495
38812.500000	-128.504822
38835.937500	-128.514694
38859.375000	-128.526062
38882.812500	-128.575592
38906.250000	-128.532776
38929.687500	-128.568665
38953.125000	-128.625046
38976.562500	-128.655670
39000.000000	-128.620499
39023.437500	-128.603058
39046.875000	-128.565994
39070.312500	-128.644302
39093.750000	-128.612122
39117.187500	-128.660553
39140.625000	-128.655396
39164.062500	-128.596436
39187.500000	-128.587891
39210.937500	-128.643326
39234.375000	-128.648117
39257.812500	-128.685730
39281.250000	-128.627701
39304.687500	-128.709518
39328.125000	-128.769318
39351.562500	-128.641052
39375.000000	-128.571320
39398.437500	-128.538147
39421.875000	-128.583984
39445.312500	-128.606445
39468.750000	-128.644821
39492.187500	-128.656418
39515.625000	-128.598145
39539.062500	-128.667587
39562.500000	-128.658112
39585.937500	-128.556564
39609.375000	-128.704178
39632.812500	-128.711197
39656.250000	-128.558289
39679.687500	-128.550507
39703.125000	-128.579285
39726.562500	-128.621628
39750.000000	-128.643631
39773.437500	-128.643402
39796.875000	-128.716263
39820.312500	-128.679611
39843.750000	-128.534668
39867.187500	-128.595947
39890.625000	-128.610855
39914.062500	-128.660599
39937.500000	-128.669785
39960.937500	-128.591385
39984.375000	-128.643600
40007.812500	-128.697144
40031.250000	-128.585922
40054.687500	-128.593704
40078.125000	-128.692749
40101.562500	-128.655273
40125.000000	-128.654724
40148.437500	-128.589081
40171.875000	-128.631607
40195.312500	-128.677429
40218.750000	-128.672806
40242.187500	-128.659286
40265.625000	-128.346344
40289.062500	-128.471848
40312.500000	-128.550354
40335.937500	-128.642334
40359.375000	-128.668259
40382.812500	-128.705002
40406.250000	-128.654083
40429.687500	-128.640533
40453.125000	-128.672241
40476.562500	-128.693604
40500.000000	-128.522339
40523.437500	-128.583511
40546.875000	-128.632477
40570.312500	-128.692993
40593.750000	-128.616608
40617.187500	-128.648590
40640.625000	-128.652481
40664.062500	-128.739273
40687.500000	-128.680145
40710.937500	-128.660919
40734.375000	-128.754242
40757.812500	-128.749298
40781.250000	-128.699615
40804.687500	-128.623245
40828.125000	-128.740585
40851.562500	-128.803680
40875.000000	-128.735016
40898.437500	-128.558014
40921.875000	-128.626648
40945.312500	-128.719650
40968.750000	-128.670029
40992.187500	-128.662582
41015.625000	-128.592300
41039.062500	-128.729691
41062.500000	-128.678528
41085.937500	-128.574326
41109.375000	-128.592529
41132.812500	-128.663910
41156.250000	-128.780334
41179.687500	-128.710434
41203.125000	-128.660751
41226.562500	-128.730026
41250.000000	-128.699326
41273.437500	-128.654129
41296.875000	-128.507187
41320.312500	-128.512527
41343.750000	-128.613419
41367.187500	-128.702148
41390.625000	-128.756744
41414.062500	-128.766785
41437.500000	-128.700455
41460.937500	-128.669754
41484.375000	-128.713943
41507.812500	-128.825500
41531.250000	-128.788544
41554.687500	-128.784149
41578.125000	-128.698776
41601.562500	-128.577667
41625.000000	-128.689697
41648.437500	-128.717987
41671.875000	-128.752182
41695.312500	-128.682907
41718.750000	-128.707565
41742.187500	-128.752975
41765.625000	-128.705750
41789.062500	-128.740402
41812.500000	-128.751099
41835.937500	-128.793106
41859.375000	-128.759109
41882.812500	-128.700317
41906.250000	-128.605789
41929.687500	-128.703049
41953.125000	-128.670425
41976.562500	-128.637497
42000.000000	-128.596970
42023.437500	-128.651871
42046.875000	-128.647125
42070.312500	-128.699982
42093.750000	-128.736740
42117.187500	-128.801682
42140.625000	-128.738007
42164.062500	-128.772507
42187.500000	-128.790985
42210.937500	-128.640488
42234.375000	-128.697342
42257.812500	-128.738846
42281.250000	-128.742020
42304.687500	-128.846771
42328.125000	-128.952530
42351.562500	-128.861679
42375.000000	-128.840561
42398.437500	-128.786438
42421.875000	-128.827225
42445.312500	-128.827148
42468.750000	-128.838196
42492.187500	-128.820663
42515.625000	-128.792374
42539.062500	-128.822388
42562.500000	-128.765518
42585.937500	-128.875153
42609.375000	-128.895966
42632.812500	-128.961838
42656.250000	-128.871323
42679.687500	-128.899521
42703.125000	-128.858841
42726.562500	-128.787415
42750.000000	-128.995224
42773.437500	-128.973251
42796.875000	-128.917770
42820.312500	-128.912537
42843.750000	-128.913834
42867.187500	-128.924011
42890.625000	-129.009048
42914.062500	-128.997406
42937.500000	-128.981720
42960.937500	-128.955276
42984.375000	-128.966202
43007.812500	-129.050095
43031.250000	-128.990936
43054.687500	-129.010254
43078.125000	-129.089737
43101.562500	-129.026886
43125.000000	-128.991547
43148.437500	-129.103577
43171.875000	-129.048569
43195.312500	-129.060760
43218.750000	-129.093765
43242.187500	-129.157822
43265.625000	-129.105515
43289.062500	-129.172195
43312.500000	-129.250137
43335.937500	-129.155502
43359.375000	-129.131332
43382.812500	-129.247192
43406.250000	-129.156174
43429.687500	-129.140945
43453.125000	-129.112640
43476.562500	-129.012756
43500.000000	-129.043915
43523.437500	-129.126465
43546.875000	-129.158630
43570.312500	-129.049683
43593.750000	-129.164230
43617.187500	-129.192032
43640.625000	-129.184402
43664.062500	-129.196686
43687.500000	-129.164642
43710.937500	-129.277878
43734.375000	-129.216797
43757.812500	-129.242935
43781.250000	-129.240311
43804.687500	-129.142181
43828.125000	-129.174072
43851.562500	-129.262161
43875.000000	-129.217743
43898.437500	-129.270584
43921.875000	-129.238663
43945.312500	-129.214676
43968.750000	-129.332932
43992.187500	-129.359558
44015.625000	-129.275131
44039.062500	-129.235245
44062.500000	-129.282028
44085.937500	-129.360229
44109.375000	-129.378143
44132.812500	-129.372055
44156.250000	-129.426147
44179.687500	-129.517609
44203.125000	-129.376968
44226.562500	-129.431610
44250.000000	-129.373474
44273.437500	-129.480576
44296.875000	-129.462967
44320.312500	-129.427917
44343.750000	-129.420837
44367.187500	-129.382324
44390.625000	-129.464127
44414.062500	-129.535416
44437.500000	-129.638855
44460.937500	-129.617447
44484.375000	-129.514221
44507.812500	-129.507080
44531.250000	-129.497437
44554.687500	-129.481888
44578.125000	-129.563553
44601.562500	-129.542831
44625.000000	-129.564636
44648.437500	-129.571014
44671.875000	-129.567352
44695.312500	-129.745697
44718.750000	-129.688538
44742.187500	-129.773788
44765.625000	-129.824799
44789.062500	-129.717163
44812.500000	-129.807663
44835.937500	-129.914551
44859.375000	-129.844009
44882.812500	-129.720062
44906.250000	-129.758606
44929.687500	-129.860962
44953.125000	-129.868057
44976.562500	-129.786865
45000.000000	-129.724182
45023.437500	-129.747253
45046.875000	-129.885941
45070.312500	-129.912018
45093.750000	-129.942841
45117.187500	-130.040848
45140.625000	-130.108383
45164.062500	-130.004379
45187.500000	-129.993362
45210.937500	-130.002457
45234.375000	-130.047180
45257.812500	-130.092529
45281.250000	-129.996429
45304.687500	-130.003860
45328.125000	-129.876663
45351.562500	-129.968842
45375.000000	-130.112274
45398.437500	-130.058243
45421.875000	-130.095245
45445.312500	-130.099686
45468.750000	-130.074936
45492.187500	-130.119247
45515.625000	-130.141663
45539.062500	-130.099533
45562.500000	-130.190430
45585.937500	-130.259277
45609.375000	-130.162704
45632.812500	-130.176788
45656.250000	-130.222473
45679.687500	-130.314041
45703.125000	-130.217209
45726.562500	-130.181458
45750.000000	-130.201859
45773.437500	-130.270172
45796.875000	-130.227295
45820.312500	-130.283661
45843.750000	-130.330643
45867.187500	-130.392273
45890.625000	-130.420959
45914.062500	-130.349380
45937.500000	-130.300507
45960.937500	-130.313416
45984.375000	-130.330185
46007.812500	-130.382431
46031.250000	-130.452362
46054.687500	-130.395218
46078.125000	-130.447006
46101.562500	-130.531006
46125.000000	-130.551941
46148.437500	-130.528900
46171.875000	-130.563126
46195.312500	-130.609970
46218.750000	-130.580368
46242.187500	-130.515747
46265.625000	-130.486969
46289.062500	-130.589691
46312.500000	-130.599762
46335.937500	-130.659485
46359.375000	-130.697922
46382.812500	-130.602615
46406.250000	-130.560699
46429.687500	-130.716812
46453.125000	-130.770020
46476.562500	-130.797821
46500.000000	-130.716644
46523.437500	-130.757492
46546.875000	-130.767899
46570.312500	-130.771881
46593.750000	-130.807434
46617.187500	-130.771133
46640.625000	-130.755295
46664.062500	-130.833847
46687.500000	-130.775803
46710.937500	-130.785385
46734.375000	-130.916046
46757.812500	-130.878967
46781.250000	-130.869385
46804.687500	-130.906631
46828.125000	-130.848129
46851.562500	-130.826599
46875.000000	-130.874649
46898.437500	-130.957199
46921.875000	-130.878891
46945.312500	-130.862488
46968.750000	-130.849777
46992.187500	-130.805359
47015.625000	-130.916946
47039.062500	-130.923706
47062.500000	-130.956985
47085.937500	-130.922791
47109.375000	-130.953705
47132.812500	-131.032013
47156.250000	-131.038773
47179.687500	-131.044113
47203.125000	-130.992477
47226.562500	-130.996750
47250.000000	-130.951111
47273.437500	-130.967667
47296.875000	-131.068375
47320.312500	-131.028351
47343.750000	-131.029984
47367.187500	-130.990784
47390.625000	-130.909180
47414.062500	-130.935349
47437.500000	-131.001663
47460.937500	-130.946777
47484.375000	-130.949371
47507.812500	-131.088593
47531.250000	-131.098343
47554.687500	-131.062012
47578.125000	-131.001495
47601.562500	-131.149277
47625.000000	-131.118332
47648.437500	-131.046600
47671.875000	-131.090927
47695.312500	-131.127533
47718.750000	-131.223038
47742.187500	-131.175278
47765.625000	-131.046997
47789.062500	-131.062851
47812.500000	-131.056656
47835.937500	-131.107285
47859.375000	-131.099731
47882.812500	-131.087692
47906.250000	-131.128433
47929.687500	-131.086243
47953.125000	-131.063004
47976.562500	-131.165665
