주파수 (Hz)	레벨 (dB)
23.437500	-100.419548
46.875000	-92.578987
70.312500	-78.780128
93.750000	-68.234489
117.187500	-62.791546
140.625000	-59.213573
164.062500	-57.625885
187.500000	-62.828014
210.937500	-60.937103
234.375000	-57.092747
257.812500	-60.583233
281.250000	-62.681526
304.687500	-60.422398
328.125000	-59.989502
351.562500	-60.351620
375.000000	-58.386562
398.437500	-60.528702
421.875000	-60.137287
445.312500	-63.687290
468.750000	-60.094921
492.187500	-61.059734
515.625000	-64.945053
539.062500	-66.362885
562.500000	-64.513618
585.937500	-66.647217
609.375000	-62.028896
632.812500	-60.489296
656.250000	-58.894730
679.687500	-61.768227
703.125000	-71.343430
726.562500	-68.627472
750.000000	-66.722832
773.437500	-72.630135
796.875000	-73.070648
820.312500	-63.271950
843.750000	-62.744499
867.187500	-73.184486
890.625000	-80.091156
914.062500	-77.877541
937.500000	-73.519295
960.937500	-73.293556
984.375000	-66.720680
1007.812500	-69.449837
1031.250000	-79.553871
1054.687500	-79.745712
1078.125000	-83.110451
1101.562500	-77.272125
1125.000000	-77.541916
1148.437500	-85.407829
1171.875000	-81.996704
1195.312500	-83.112778
1218.750000	-76.382538
1242.187500	-68.289970
1265.625000	-70.091614
1289.062500	-76.988258
1312.500000	-69.214981
1335.937500	-70.557793
1359.375000	-83.436150
1382.812500	-83.427353
1406.250000	-80.692947
1429.687500	-83.855209
1453.125000	-87.198631
1476.562500	-75.771393
1500.000000	-75.177254
1523.437500	-85.026360
1546.875000	-85.916855
1570.312500	-80.415596
1593.750000	-82.996658
1617.187500	-88.572464
1640.625000	-80.207474
1664.062500	-72.880852
1687.500000	-74.862198
1710.937500	-84.653107
1734.375000	-86.521957
1757.812500	-87.744133
1781.250000	-93.275856
1804.687500	-97.747032
1828.125000	-97.696281
1851.562500	-88.280464
1875.000000	-79.925636
1898.437500	-82.327805
1921.875000	-94.914070
1945.312500	-95.700356
1968.750000	-85.961205
1992.187500	-80.524513
2015.625000	-84.711601
2039.062500	-99.526817
2062.500000	-100.109795
2085.937500	-92.750504
2109.375000	-89.834221
2132.812500	-93.967155
2156.250000	-102.669617
2179.687500	-99.744873
2203.125000	-94.495667
2226.562500	-92.629433
2250.000000	-91.186920
2273.437500	-98.820610
2296.875000	-103.519722
2320.312500	-100.420471
2343.750000	-95.923820
2367.187500	-94.366219
2390.625000	-97.520226
2414.062500	-104.256653
2437.500000	-104.361015
2460.937500	-103.131317
2484.375000	-92.628868
2507.812500	-84.640701
2531.250000	-85.594139
2554.687500	-97.157959
2578.125000	-105.141861
2601.562500	-105.208603
2625.000000	-105.604851
2648.437500	-100.559616
2671.875000	-95.863205
2695.312500	-100.390892
2718.750000	-108.400459
2742.187500	-105.939384
2765.625000	-102.097610
2789.062500	-97.128433
2812.500000	-95.105865
2835.937500	-96.213051
2859.375000	-102.158905
2882.812500	-109.620995
2906.250000	-110.568687
2929.687500	-108.107018
2953.125000	-100.442223
2976.562500	-95.017540
3000.000000	-90.022774
3023.437500	-92.711830
3046.875000	-103.312897
3070.312500	-108.228851
3093.750000	-106.159401
3117.187500	-108.173218
3140.625000	-106.456474
3164.062500	-100.115753
3187.500000	-99.165161
3210.937500	-98.068604
3234.375000	-105.288582
3257.812500	-113.833008
3281.250000	-111.014648
3304.687500	-109.078911
3328.125000	-103.904564
3351.562500	-95.995590
3375.000000	-95.676880
3398.437500	-101.649323
3421.875000	-110.273018
3445.312500	-116.188263
3468.750000	-116.829674
3492.187500	-114.254883
3515.625000	-108.776337
3539.062500	-106.880501
3562.500000	-111.809341
3585.937500	-114.776268
3609.375000	-113.226730
3632.812500	-113.731071
3656.250000	-117.529419
3679.687500	-117.900291
3703.125000	-116.452637
3726.562500	-115.911301
3750.000000	-109.054993
3773.437500	-99.702278
3796.875000	-100.450508
3820.312500	-102.398605
3843.750000	-104.490700
3867.187500	-110.190567
3890.625000	-117.919510
3914.062500	-119.832039
3937.500000	-118.732811
3960.937500	-118.598465
3984.375000	-115.091225
4007.812500	-109.237434
4031.250000	-106.443436
4054.687500	-101.921783
4078.125000	-105.097290
4101.562500	-115.994347
4125.000000	-119.808372
4148.437500	-119.317833
4171.875000	-116.994247
4195.312500	-113.719002
4218.750000	-108.491745
4242.187500	-100.759460
4265.625000	-101.353027
4289.062500	-111.587021
4312.500000	-115.630363
4335.937500	-113.239655
4359.375000	-114.430557
4382.812500	-119.009064
4406.250000	-121.492233
4429.687500	-120.611023
4453.125000	-119.747993
4476.562500	-113.980324
4500.000000	-111.592514
4523.437500	-114.284943
4546.875000	-106.978020
4570.312500	-100.903313
4593.750000	-104.421364
4617.187500	-114.097153
4640.625000	-119.206718
4664.062500	-121.421463
4687.500000	-122.703690
4710.937500	-120.503746
4734.375000	-114.227051
4757.812500	-103.805679
4781.250000	-103.450798
4804.687500	-112.174324
4828.125000	-120.092148
4851.562500	-121.906494
4875.000000	-122.032616
4898.437500	-120.543396
4921.875000	-118.392113
4945.312500	-119.419197
4968.750000	-121.932945
4992.187500	-121.827850
5015.625000	-122.186012
5039.062500	-120.666542
5062.500000	-111.433617
5085.937500	-107.306549
5109.375000	-108.274910
5132.812500	-108.212540
5156.250000	-108.715439
5179.687500	-112.444572
5203.125000	-118.291718
5226.562500	-121.896378
5250.000000	-123.739464
5273.437500	-124.446312
5296.875000	-124.726799
5320.312500	-123.997246
5343.750000	-123.071877
5367.187500	-119.347458
5390.625000	-111.711304
5414.062500	-112.476471
5437.500000	-120.997299
5460.937500	-121.569870
5484.375000	-118.096542
5507.812500	-119.499184
5531.250000	-122.669220
5554.687500	-121.853561
5578.125000	-122.447289
5601.562500	-123.371063
5625.000000	-123.661133
5648.437500	-124.009605
5671.875000	-124.349228
5695.312500	-123.862022
5718.750000	-124.142242
5742.187500	-124.933952
5765.625000	-124.214386
5789.062500	-123.708252
5812.500000	-121.557556
5835.937500	-124.025002
5859.375000	-125.246506
5882.812500	-123.479088
5906.250000	-123.591934
5929.687500	-125.360161
5953.125000	-126.347900
5976.562500	-125.199112
6000.000000	-124.545464
6023.437500	-125.203773
6046.875000	-122.991196
6070.312500	-116.364479
6093.750000	-113.582230
6117.187500	-118.349281
6140.625000	-120.871284
6164.062500	-116.362564
6187.500000	-116.058083
6210.937500	-116.287819
6234.375000	-115.474655
6257.812500	-120.541107
6281.250000	-121.259293
6304.687500	-122.732307
6328.125000	-125.320930
6351.562500	-125.343193
6375.000000	-123.930511
6398.437500	-124.838562
6421.875000	-125.818153
6445.312500	-125.915436
6468.750000	-125.301079
6492.187500	-124.341042
6515.625000	-124.146347
6539.062500	-125.217430
6562.500000	-125.753593
6585.937500	-125.705261
6609.375000	-125.863426
6632.812500	-126.308380
6656.250000	-126.520760
6679.687500	-126.306000
6703.125000	-126.322922
6726.562500	-126.737976
6750.000000	-127.080223
6773.437500	-126.555313
6796.875000	-126.289726
6820.312500	-126.007614
6843.750000	-126.160530
6867.187500	-126.113899
6890.625000	-125.261002
6914.062500	-124.535393
6937.500000	-124.387245
6960.937500	-125.456619
6984.375000	-124.759483
7007.812500	-122.267906
7031.250000	-121.374794
7054.687500	-124.875961
7078.125000	-123.052010
7101.562500	-124.190674
7125.000000	-126.182945
7148.437500	-126.311729
7171.875000	-126.745384
7195.312500	-126.291794
7218.750000	-126.198486
7242.187500	-126.839554
7265.625000	-126.901215
7289.062500	-125.945885
7312.500000	-124.542328
7335.937500	-124.704681
7359.375000	-126.986931
7382.812500	-127.184929
7406.250000	-126.497025
7429.687500	-126.896210
7453.125000	-127.559830
7476.562500	-127.352654
7500.000000	-127.122475
7523.437500	-127.233055
7546.875000	-127.440201
7570.312500	-127.240326
7593.750000	-127.288612
7617.187500	-126.641258
7640.625000	-127.015671
7664.062500	-127.452248
7687.500000	-127.605103
7710.937500	-127.251289
7734.375000	-127.347946
7757.812500	-127.428772
7781.250000	-126.988899
7804.687500	-127.101578
7828.125000	-127.244888
7851.562500	-126.903366
7875.000000	-125.931381
7898.437500	-125.575371
7921.875000	-126.181717
7945.312500	-126.440544
7968.750000	-123.672340
7992.187500	-120.098289
8015.625000	-120.472450
8039.062500	-125.910858
8062.500000	-127.115105
8085.937500	-127.385254
8109.375000	-127.225822
8132.812500	-126.882370
8156.250000	-126.927559
8179.687500	-127.532097
8203.125000	-127.468170
8226.562500	-127.332924
8250.000000	-127.233376
8273.437500	-126.949333
8296.875000	-127.103142
8320.312500	-127.338882
8343.750000	-127.073433
8367.187500	-127.058495
8390.625000	-126.883163
8414.062500	-126.087906
8437.500000	-125.111008
8460.937500	-126.050156
8484.375000	-126.153473
8507.812500	-127.144753
8531.250000	-127.376503
8554.687500	-127.462715
8578.125000	-127.282654
8601.562500	-127.128754
8625.000000	-127.434319
8648.437500	-127.436272
8671.875000	-127.076668
8695.312500	-126.935135
8718.750000	-127.146820
8742.187500	-127.310150
8765.625000	-127.424301
8789.062500	-127.608215
8812.500000	-127.508957
8835.937500	-127.292023
8859.375000	-126.781059
8882.812500	-126.456253
8906.250000	-126.738960
8929.687500	-126.655907
8953.125000	-126.957672
8976.562500	-126.291367
9000.000000	-125.010773
9023.437500	-126.344307
9046.875000	-127.748329
9070.312500	-127.599716
9093.750000	-127.131775
9117.187500	-126.993500
9140.625000	-127.684944
9164.062500	-127.852051
9187.500000	-127.784607
9210.937500	-127.851791
9234.375000	-127.788116
9257.812500	-127.531540
9281.250000	-127.212547
9304.687500	-127.099846
9328.125000	-127.552490
9351.562500	-127.787994
9375.000000	-127.603867
9398.437500	-127.595261
9421.875000	-127.559906
9445.312500	-127.465294
9468.750000	-127.585709
9492.187500	-127.492935
9515.625000	-127.909172
9539.062500	-128.130936
9562.500000	-127.784744
9585.937500	-127.781715
9609.375000	-127.888237
9632.812500	-127.501595
9656.250000	-127.635468
9679.687500	-127.391716
9703.125000	-126.786034
9726.562500	-127.240562
9750.000000	-127.253021
9773.437500	-127.881912
9796.875000	-128.250595
9820.312500	-128.317825
9843.750000	-127.770485
9867.187500	-128.019897
9890.625000	-128.228699
9914.062500	-127.999756
9937.500000	-127.915634
9960.937500	-127.746490
9984.375000	-127.894753
10007.812500	-127.990463
10031.250000	-127.657684
10054.687500	-127.900383
10078.125000	-128.397522
10101.562500	-128.281219
10125.000000	-128.007751
10148.437500	-127.801765
10171.875000	-127.797073
10195.312500	-127.915268
10218.750000	-128.020035
10242.187500	-128.202209
10265.625000	-128.038025
10289.062500	-128.097107
10312.500000	-127.854790
10335.937500	-127.496307
10359.375000	-128.022629
10382.812500	-128.125366
10406.250000	-128.160477
10429.687500	-128.057175
10453.125000	-127.837799
10476.562500	-128.279709
10500.000000	-128.433792
10523.437500	-128.448593
10546.875000	-128.259567
10570.312500	-128.192017
10593.750000	-128.486801
10617.187500	-128.508270
10640.625000	-128.454315
10664.062500	-128.395615
10687.500000	-128.571838
10710.937500	-128.565750
10734.375000	-128.436005
10757.812500	-128.399582
10781.250000	-128.413239
10804.687500	-128.302170
10828.125000	-128.399048
10851.562500	-128.604752
10875.000000	-128.495377
10898.437500	-128.193207
10921.875000	-127.774384
10945.312500	-128.235535
10968.750000	-128.022751
10992.187500	-128.152466
11015.625000	-128.479355
11039.062500	-128.629440
11062.500000	-128.488831
11085.937500	-128.577377
11109.375000	-128.723419
11132.812500	-128.594193
11156.250000	-128.563538
11179.687500	-128.410172
11203.125000	-128.407593
11226.562500	-128.525467
11250.000000	-128.673767
11273.437500	-128.708023
11296.875000	-128.642288
11320.312500	-128.541840
11343.750000	-128.551285
11367.187500	-128.432541
11390.625000	-128.493271
11414.062500	-128.411560
11437.500000	-128.332153
11460.937500	-128.497147
11484.375000	-128.583420
11507.812500	-128.492050
11531.250000	-128.553497
11554.687500	-128.524414
11578.125000	-128.452011
11601.562500	-128.725861
11625.000000	-128.611389
11648.437500	-128.637344
11671.875000	-128.684509
11695.312500	-128.491104
11718.750000	-128.166473
11742.187500	-128.410507
11765.625000	-128.687378
11789.062500	-128.585388
11812.500000	-128.311447
11835.937500	-128.501221
11859.375000	-128.607040
11882.812500	-128.575226
11906.250000	-128.384369
11929.687500	-128.604034
11953.125000	-128.527252
11976.562500	-128.622589
12000.000000	-128.719528
12023.437500	-128.844482
12046.875000	-128.781708
12070.312500	-128.612244
12093.750000	-128.607193
12117.187500	-128.684296
12140.625000	-128.736771
12164.062500	-128.641083
12187.500000	-128.548706
12210.937500	-128.536133
12234.375000	-128.619095
12257.812500	-128.445114
12281.250000	-128.446259
12304.687500	-128.634216
12328.125000	-128.553665
12351.562500	-128.669189
12375.000000	-128.652649
12398.437500	-128.657166
12421.875000	-128.705322
12445.312500	-128.628845
12468.750000	-128.745926
12492.187500	-128.663849
12515.625000	-128.661163
12539.062500	-128.653915
12562.500000	-128.668030
12585.937500	-128.387405
12609.375000	-128.577240
12632.812500	-128.748657
12656.250000	-128.703217
12679.687500	-128.732574
12703.125000	-128.729248
12726.562500	-128.694702
12750.000000	-128.790665
12773.437500	-128.663147
12796.875000	-128.695038
12820.312500	-128.728226
12843.750000	-128.671524
12867.187500	-128.638901
12890.625000	-128.717743
12914.062500	-128.789902
12937.500000	-128.686874
12960.937500	-128.677963
12984.375000	-128.848511
13007.812500	-128.839233
13031.250000	-128.777267
13054.687500	-128.631851
13078.125000	-128.836761
13101.562500	-128.941589
13125.000000	-128.870361
13148.437500	-128.750931
13171.875000	-128.673889
13195.312500	-128.709839
13218.750000	-128.701050
13242.187500	-128.676514
13265.625000	-128.684891
13289.062500	-128.795364
13312.500000	-128.855865
13335.937500	-128.906967
13359.375000	-128.842133
13382.812500	-128.646088
13406.250000	-128.766418
13429.687500	-128.962143
13453.125000	-128.846252
13476.562500	-128.781967
13500.000000	-128.811722
13523.437500	-128.956482
13546.875000	-128.983490
13570.312500	-128.745605
13593.750000	-128.759338
13617.187500	-128.738449
13640.625000	-128.791916
13664.062500	-128.763290
13687.500000	-128.899689
13710.937500	-128.867615
13734.375000	-128.905869
13757.812500	-128.911987
13781.250000	-128.820267
13804.687500	-128.767517
13828.125000	-128.873413
13851.562500	-128.765060
13875.000000	-128.827805
13898.437500	-128.794128
13921.875000	-128.811218
13945.312500	-128.926208
13968.750000	-128.863358
13992.187500	-128.913361
14015.625000	-128.943512
14039.062500	-128.880157
14062.500000	-128.959473
14085.937500	-128.945831
14109.375000	-128.742203
14132.812500	-128.788300
14156.250000	-128.885605
14179.687500	-128.859573
14203.125000	-128.779358
14226.562500	-128.787064
14250.000000	-128.739716
14273.437500	-128.880173
14296.875000	-128.955795
14320.312500	-128.848602
14343.750000	-128.784821
14367.187500	-128.767761
14390.625000	-128.866257
14414.062500	-128.908188
14437.500000	-128.820908
14460.937500	-128.937241
14484.375000	-128.894485
14507.812500	-129.022354
14531.250000	-129.070129
14554.687500	-128.993408
14578.125000	-129.072556
14601.562500	-129.047455
14625.000000	-128.993759
14648.437500	-128.949280
14671.875000	-129.035248
14695.312500	-129.011459
14718.750000	-128.940094
14742.187500	-128.954010
14765.625000	-128.999817
14789.062500	-128.986710
14812.500000	-129.024841
14835.937500	-129.092606
14859.375000	-129.123062
14882.812500	-129.073898
14906.250000	-128.917847
14929.687500	-128.857407
14953.125000	-129.065796
14976.562500	-129.130066
15000.000000	-129.032333
15023.437500	-129.017899
15046.875000	-128.998215
15070.312500	-128.981384
15093.750000	-129.050278
15117.187500	-128.965836
15140.625000	-129.085129
15164.062500	-128.974228
15187.500000	-128.867401
15210.937500	-128.937897
15234.375000	-129.031555
15257.812500	-129.089996
15281.250000	-129.142838
15304.687500	-129.182602
15328.125000	-129.083115
15351.562500	-129.122604
15375.000000	-129.085129
15398.437500	-128.925247
15421.875000	-129.021652
15445.312500	-128.952271
15468.750000	-128.834991
15492.187500	-128.934464
15515.625000	-128.964813
15539.062500	-129.011383
15562.500000	-129.072311
15585.937500	-129.006851
15609.375000	-129.071320
15632.812500	-129.117676
15656.250000	-129.025543
15679.687500	-129.006866
15703.125000	-129.092117
15726.562500	-128.992279
15750.000000	-128.996475
15773.437500	-129.045258
15796.875000	-129.093063
15820.312500	-128.994583
15843.750000	-129.043106
15867.187500	-129.068909
15890.625000	-129.065552
15914.062500	-128.866364
15937.500000	-128.928543
15960.937500	-129.044922
15984.375000	-129.113434
16007.812500	-129.039093
16031.250000	-128.895767
16054.687500	-129.008606
16078.125000	-129.071106
16101.562500	-129.015427
16125.000000	-129.101822
16148.437500	-129.087219
16171.875000	-129.076035
16195.312500	-129.116287
16218.750000	-128.995865
16242.187500	-129.014954
16265.625000	-129.071503
16289.062500	-129.065613
16312.500000	-129.007233
16335.937500	-129.171448
16359.375000	-129.079208
16382.812500	-128.992126
16406.250000	-129.053131
16429.687500	-129.143005
16453.125000	-129.227890
16476.562500	-129.188416
16500.000000	-129.058289
16523.437500	-129.019928
16546.875000	-129.094147
16570.312500	-129.094070
16593.750000	-129.099319
16617.187500	-129.123627
16640.625000	-129.204422
16664.062500	-129.210068
16687.500000	-129.190063
16710.937500	-129.170258
16734.375000	-129.097092
16757.812500	-129.115753
16781.250000	-129.167282
16804.687500	-129.155350
16828.125000	-129.124756
16851.562500	-129.136932
16875.000000	-129.128296
16898.437500	-129.065353
16921.875000	-129.055466
16945.312500	-129.123947
16968.750000	-129.078888
16992.187500	-129.207489
17015.625000	-129.209976
17039.062500	-129.125854
17062.500000	-129.097687
17085.937500	-129.156113
17109.375000	-129.209747
17132.812500	-129.202057
17156.250000	-129.193787
17179.687500	-129.103073
17203.125000	-128.993210
17226.562500	-129.126694
17250.000000	-129.191254
17273.437500	-129.232788
17296.875000	-129.168930
17320.312500	-129.115784
17343.750000	-129.104813
17367.187500	-129.191452
17390.625000	-129.168137
17414.062500	-129.154984
17437.500000	-129.220978
17460.937500	-129.107239
17484.375000	-129.022079
17507.812500	-129.139008
17531.250000	-129.261871
17554.687500	-129.287598
17578.125000	-129.269485
17601.562500	-129.174911
17625.000000	-129.069061
17648.437500	-129.216354
17671.875000	-129.146179
17695.312500	-129.173645
17718.750000	-129.279633
17742.187500	-129.203995
17765.625000	-129.140060
17789.062500	-129.086807
17812.500000	-129.193146
17835.937500	-129.189468
17859.375000	-129.132202
17882.812500	-129.227173
17906.250000	-129.158707
17929.687500	-129.047272
17953.125000	-129.125748
17976.562500	-129.170609
18000.000000	-129.218857
18023.437500	-129.221405
18046.875000	-129.196899
18070.312500	-129.195267
18093.750000	-129.250900
18117.187500	-129.247620
18140.625000	-129.172607
18164.062500	-129.191650
18187.500000	-129.204742
18210.937500	-129.172333
18234.375000	-129.163910
18257.812500	-129.185684
18281.250000	-129.114929
18304.687500	-129.191467
18328.125000	-129.280899
18351.562500	-129.148438
18375.000000	-129.170502
18398.437500	-129.186279
18421.875000	-129.189163
18445.312500	-129.181122
18468.750000	-129.111969
18492.187500	-129.196335
18515.625000	-129.208969
18539.062500	-129.289185
18562.500000	-129.278549
18585.937500	-129.181702
18609.375000	-129.171509
18632.812500	-129.250854
18656.250000	-129.243301
18679.687500	-129.212097
18703.125000	-129.071411
18726.562500	-129.128799
18750.000000	-129.195267
18773.437500	-129.131241
18796.875000	-129.103577
18820.312500	-129.079834
18843.750000	-129.192169
18867.187500	-129.220169
18890.625000	-129.261902
18914.062500	-129.235840
18937.500000	-129.153534
18960.937500	-129.184097
18984.375000	-129.243317
19007.812500	-129.168060
19031.250000	-129.186584
19054.687500	-129.240189
19078.125000	-129.171890
19101.562500	-129.076218
19125.000000	-129.102661
19148.437500	-129.008591
19171.875000	-128.658600
19195.312500	-128.678009
19218.750000	-128.969040
19242.187500	-128.945801
19265.625000	-128.914642
19289.062500	-128.993637
19312.500000	-129.121307
19335.937500	-129.137161
19359.375000	-129.188553
19382.812500	-129.123352
19406.250000	-129.115982
19429.687500	-129.238129
19453.125000	-129.236893
19476.562500	-129.199081
19500.000000	-129.254822
19523.437500	-129.284439
19546.875000	-129.218765
19570.312500	-129.182678
19593.750000	-129.186966
19617.187500	-129.222443
19640.625000	-129.319809
19664.062500	-129.401230
19687.500000	-129.347031
19710.937500	-129.311050
19734.375000	-129.229385
19757.812500	-129.306946
19781.250000	-129.246490
19804.687500	-129.217789
19828.125000	-129.158569
19851.562500	-129.198486
19875.000000	-129.215958
19898.437500	-129.192139
19921.875000	-129.196671
19945.312500	-129.080414
19968.750000	-129.018066
19992.187500	-129.232513
20015.625000	-129.267883
20039.062500	-129.280014
20062.500000	-129.247498
20085.937500	-129.137802
20109.375000	-129.056076
20132.812500	-128.921600
20156.250000	-129.075378
20179.687500	-129.257187
20203.125000	-129.220383
20226.562500	-129.174088
20250.000000	-129.225311
20273.437500	-129.328781
20296.875000	-129.328629
20320.312500	-129.314941
20343.750000	-129.263596
20367.187500	-129.216431
20390.625000	-129.284729
20414.062500	-129.364075
20437.500000	-129.311264
20460.937500	-129.309082
20484.375000	-129.227051
20507.812500	-129.137924
20531.250000	-129.092789
20554.687500	-129.186325
20578.125000	-129.246323
20601.562500	-129.284576
20625.000000	-129.180573
20648.437500	-129.158386
20671.875000	-129.114822
20695.312500	-129.148911
20718.750000	-129.197800
20742.187500	-129.223221
20765.625000	-129.173920
20789.062500	-129.280746
20812.500000	-129.283173
20835.937500	-129.306274
20859.375000	-129.318314
20882.812500	-129.255478
20906.250000	-129.222046
20929.687500	-129.097046
20953.125000	-129.137558
20976.562500	-129.267136
21000.000000	-129.253540
21023.437500	-129.261490
21046.875000	-129.270828
21070.312500	-129.201874
21093.750000	-129.274445
21117.187500	-129.284317
21140.625000	-129.293839
21164.062500	-129.256866
21187.500000	-129.289398
21210.937500	-129.256073
21234.375000	-129.217987
21257.812500	-129.242569
21281.250000	-129.181473
21304.687500	-129.217026
21328.125000	-129.202316
21351.562500	-129.216385
21375.000000	-129.283981
21398.437500	-129.344513
21421.875000	-129.256027
21445.312500	-129.257217
21468.750000	-129.147507
21492.187500	-129.203888
21515.625000	-129.263855
21539.062500	-129.286926
21562.500000	-129.292023
21585.937500	-129.279053
21609.375000	-129.337906
21632.812500	-129.210663
21656.250000	-129.225510
21679.687500	-129.298279
21703.125000	-129.289917
21726.562500	-129.266663
21750.000000	-129.148331
21773.437500	-129.142548
21796.875000	-129.217239
21820.312500	-129.256851
21843.750000	-129.289612
21867.187500	-129.235809
21890.625000	-129.300858
21914.062500	-129.310669
21937.500000	-129.198761
21960.937500	-129.246109
21984.375000	-129.255661
22007.812500	-129.312531
22031.250000	-129.282227
22054.687500	-129.231903
22078.125000	-129.240814
22101.562500	-129.269516
22125.000000	-129.286346
22148.437500	-129.161972
22171.875000	-129.278870
22195.312500	-129.308838
22218.750000	-129.278763
22242.187500	-129.246475
22265.625000	-129.198013
22289.062500	-129.222443
22312.500000	-129.202774
22335.937500	-129.243423
22359.375000	-129.288513
22382.812500	-129.236252
22406.250000	-129.182114
22429.687500	-129.194290
22453.125000	-129.198410
22476.562500	-129.135910
22500.000000	-129.139755
22523.437500	-129.147217
22546.875000	-129.177841
22570.312500	-129.208374
22593.750000	-129.243271
22617.187500	-129.248886
22640.625000	-129.252594
22664.062500	-129.273285
22687.500000	-129.260178
22710.937500	-129.243042
22734.375000	-129.231674
22757.812500	-129.059555
22781.250000	-129.201874
22804.687500	-129.229050
22828.125000	-129.177444
22851.562500	-129.244873
22875.000000	-129.174957
22898.437500	-129.154846
22921.875000	-129.212463
22945.312500	-129.159149
22968.750000	-129.130936
22992.187500	-129.178604
23015.625000	-129.227112
23039.062500	-129.214615
23062.500000	-129.279007
23085.937500	-129.260193
23109.375000	-129.224915
23132.812500	-129.199234
23156.250000	-129.111954
23179.687500	-129.197388
23203.125000	-129.215256
23226.562500	-129.159424
23250.000000	-129.212708
23273.437500	-129.297928
23296.875000	-129.309601
23320.312500	-129.303360
23343.750000	-129.274597
23367.187500	-129.338593
23390.625000	-129.251709
23414.062500	-129.258789
23437.500000	-129.302490
23460.937500	-129.226593
23484.375000	-129.236313
23507.812500	-129.205658
23531.250000	-129.223328
23554.687500	-129.252594
23578.125000	-129.318161
23601.562500	-129.122040
23625.000000	-129.219345
23648.437500	-129.268143
23671.875000	-129.250961
23695.312500	-129.171906
23718.750000	-129.205154
23742.187500	-129.202240
23765.625000	-129.229523
23789.062500	-129.222992
23812.500000	-129.190063
23835.937500	-129.280182
23859.375000	-129.213455
23882.812500	-129.196411
23906.250000	-129.186981
23929.687500	-129.227036
23953.125000	-129.129227
23976.562500	-129.081436
24000.000000	-129.136475
24023.437500	-129.084152
24046.875000	-129.212021
24070.312500	-129.219025
24093.750000	-129.233414
24117.187500	-129.195404
24140.625000	-129.206985
24164.062500	-129.252792
24187.500000	-129.257111
24210.937500	-129.230225
24234.375000	-129.142990
24257.812500	-129.048782
24281.250000	-129.097244
24304.687500	-129.128540
24328.125000	-129.246017
24351.562500	-129.131653
24375.000000	-129.136047
24398.437500	-129.119980
24421.875000	-129.019241
24445.312500	-129.089462
24468.750000	-129.180588
24492.187500	-129.316757
24515.625000	-129.271500
24539.062500	-129.256058
24562.500000	-129.297485
24585.937500	-129.250244
24609.375000	-129.259277
24632.812500	-129.261185
24656.250000	-129.268372
24679.687500	-129.188019
24703.125000	-129.202377
24726.562500	-129.284088
24750.000000	-129.123184
24773.437500	-129.134232
24796.875000	-129.129288
24820.312500	-129.163635
24843.750000	-129.158325
24867.187500	-129.149414
24890.625000	-129.174240
24914.062500	-129.210159
24937.500000	-129.260483
24960.937500	-129.226105
24984.375000	-129.146667
25007.812500	-129.093689
25031.250000	-129.131424
25054.687500	-129.153137
25078.125000	-129.118378
25101.562500	-129.194031
25125.000000	-129.216766
25148.437500	-129.176605
25171.875000	-129.202652
25195.312500	-129.215591
25218.750000	-129.220062
25242.187500	-129.195892
25265.625000	-129.136459
25289.062500	-129.144913
25312.500000	-129.191132
25335.937500	-129.166489
25359.375000	-129.233917
25382.812500	-129.264374
25406.250000	-129.165115
25429.687500	-129.224564
25453.125000	-129.252899
25476.562500	-129.268951
25500.000000	-129.274628
25523.437500	-129.180313
25546.875000	-129.124481
25570.312500	-129.156494
25593.750000	-129.187637
25617.187500	-129.135880
25640.625000	-129.174988
25664.062500	-129.175003
25687.500000	-129.173065
25710.937500	-129.179214
25734.375000	-129.113586
25757.812500	-129.118439
25781.250000	-129.046066
25804.687500	-129.103043
25828.125000	-129.185394
25851.562500	-129.171738
25875.000000	-129.088211
25898.437500	-129.086273
25921.875000	-129.082901
25945.312500	-129.097031
25968.750000	-129.095901
25992.187500	-129.079269
26015.625000	-129.052200
26039.062500	-129.156067
26062.500000	-129.149384
26085.937500	-129.073593
26109.375000	-129.132156
26132.812500	-129.233551
26156.250000	-129.208801
26179.687500	-129.109711
26203.125000	-129.199646
26226.562500	-129.195618
26250.000000	-129.177277
26273.437500	-129.170044
26296.875000	-129.148804
26320.312500	-129.080032
26343.750000	-129.082169
26367.187500	-129.173157
26390.625000	-129.091492
26414.062500	-129.069672
26437.500000	-129.265121
26460.937500	-129.225189
26484.375000	-129.067978
26507.812500	-129.079132
26531.250000	-129.122696
26554.687500	-129.126694
26578.125000	-129.070999
26601.562500	-129.158005
26625.000000	-129.071701
26648.437500	-129.098358
26671.875000	-129.149918
26695.312500	-129.210327
26718.750000	-129.211594
26742.187500	-129.115204
26765.625000	-129.156998
26789.062500	-129.093384
26812.500000	-129.181091
26835.937500	-129.105377
26859.375000	-129.054810
26882.812500	-129.150986
26906.250000	-129.139313
26929.687500	-129.151230
26953.125000	-129.091370
26976.562500	-129.101959
27000.000000	-129.179291
27023.437500	-129.162598
27046.875000	-129.133652
27070.312500	-129.174393
27093.750000	-129.047913
27117.187500	-129.136597
27140.625000	-129.117020
27164.062500	-129.134857
27187.500000	-129.153839
27210.937500	-129.216171
27234.375000	-129.218781
27257.812500	-129.138275
27281.250000	-129.114655
27304.687500	-129.148468
27328.125000	-129.159760
27351.562500	-129.223236
27375.000000	-129.201889
27398.437500	-129.156235
27421.875000	-129.138382
27445.312500	-129.189453
27468.750000	-129.116226
27492.187500	-129.181870
27515.625000	-129.238281
27539.062500	-129.139084
27562.500000	-129.091904
27585.937500	-129.230820
27609.375000	-129.162430
27632.812500	-129.195694
27656.250000	-129.112473
27679.687500	-129.083725
27703.125000	-129.056717
27726.562500	-129.131165
27750.000000	-129.181198
27773.437500	-129.159607
27796.875000	-129.112183
27820.312500	-129.129425
27843.750000	-129.209717
27867.187500	-129.189804
27890.625000	-129.044327
27914.062500	-129.056747
27937.500000	-129.050995
27960.937500	-129.124527
27984.375000	-129.156662
28007.812500	-129.145157
28031.250000	-129.167984
28054.687500	-129.204224
28078.125000	-129.237503
28101.562500	-129.269562
28125.000000	-129.163834
28148.437500	-129.139053
28171.875000	-129.136902
28195.312500	-129.112991
28218.750000	-129.145020
28242.187500	-129.156662
28265.625000	-129.166168
28289.062500	-129.158051
28312.500000	-129.152039
28335.937500	-129.172440
28359.375000	-129.114014
28382.812500	-129.028885
28406.250000	-129.068726
28429.687500	-129.115356
28453.125000	-129.072159
28476.562500	-129.034607
28500.000000	-129.099579
28523.437500	-129.154480
28546.875000	-129.146301
28570.312500	-129.140686
28593.750000	-129.087250
28617.187500	-129.162613
28640.625000	-129.201981
28664.062500	-129.144821
28687.500000	-129.121521
28710.937500	-129.136765
28734.375000	-129.107544
28757.812500	-129.137390
28781.250000	-129.236633
28804.687500	-129.150589
28828.125000	-129.046875
28851.562500	-129.149719
28875.000000	-129.180084
28898.437500	-129.013901
28921.875000	-129.037949
28945.312500	-129.179489
28968.750000	-129.149948
28992.187500	-129.192200
29015.625000	-129.128616
29039.062500	-128.993271
29062.500000	-129.079453
29085.937500	-129.123856
29109.375000	-129.205215
29132.812500	-129.184021
29156.250000	-129.192368
29179.687500	-129.172607
29203.125000	-129.182205
29226.562500	-129.165253
29250.000000	-129.151047
29273.437500	-129.106522
29296.875000	-129.110947
29320.312500	-129.105591
29343.750000	-129.090836
29367.187500	-129.062653
29390.625000	-129.108643
29414.062500	-129.106369
29437.500000	-129.184769
29460.937500	-129.220474
29484.375000	-129.143860
29507.812500	-129.089020
29531.250000	-129.089569
29554.687500	-129.108749
29578.125000	-129.075989
29601.562500	-129.069351
29625.000000	-129.076172
29648.437500	-129.057327
29671.875000	-129.096313
29695.312500	-129.001221
29718.750000	-129.073059
29742.187500	-129.096451
29765.625000	-129.159866
29789.062500	-129.094070
29812.500000	-128.959702
29835.937500	-129.091766
29859.375000	-129.117157
29882.812500	-129.128860
29906.250000	-129.116577
29929.687500	-129.061966
29953.125000	-129.050232
29976.562500	-129.027969
30000.000000	-129.132812
30023.437500	-129.065628
30046.875000	-129.077713
30070.312500	-129.047211
30093.750000	-129.067642
30117.187500	-129.161041
30140.625000	-129.118881
30164.062500	-129.065002
30187.500000	-129.095047
30210.937500	-129.119614
30234.375000	-129.115799
30257.812500	-129.108231
30281.250000	-129.108948
30304.687500	-129.080170
30328.125000	-129.064346
30351.562500	-129.068024
30375.000000	-129.164200
30398.437500	-129.205429
30421.875000	-129.180038
30445.312500	-129.196075
30468.750000	-129.126129
30492.187500	-129.134689
30515.625000	-129.099945
30539.062500	-129.102158
30562.500000	-129.080139
30585.937500	-129.068237
30609.375000	-129.086716
30632.812500	-129.121262
30656.250000	-129.113556
30679.687500	-129.109543
30703.125000	-129.081039
30726.562500	-129.079178
30750.000000	-129.123749
30773.437500	-129.113251
30796.875000	-129.013992
30820.312500	-129.052124
30843.750000	-129.131485
30867.187500	-129.099854
30890.625000	-129.103394
30914.062500	-129.109070
30937.500000	-129.077393
30960.937500	-129.047119
30984.375000	-129.234299
31007.812500	-129.091370
31031.250000	-129.048203
31054.687500	-129.079773
31078.125000	-129.037231
31101.562500	-129.109421
31125.000000	-129.141510
31148.437500	-129.128799
31171.875000	-129.152939
31195.312500	-129.037506
31218.750000	-129.156631
31242.187500	-129.106430
31265.625000	-129.023087
31289.062500	-129.080841
31312.500000	-129.131180
31335.937500	-129.134796
31359.375000	-129.185074
31382.812500	-129.133575
31406.250000	-129.105942
31429.687500	-129.009277
31453.125000	-129.015076
31476.562500	-129.112518
31500.000000	-129.148453
31523.437500	-129.040756
31546.875000	-129.041962
31570.312500	-129.070038
31593.750000	-129.157440
31617.187500	-129.101593
31640.625000	-129.084183
31664.062500	-129.026520
31687.500000	-129.068954
31710.937500	-129.058197
31734.375000	-129.023560
31757.812500	-129.128586
31781.250000	-129.159317
31804.687500	-129.098526
31828.125000	-129.028702
31851.562500	-129.024155
31875.000000	-129.044479
31898.437500	-129.039459
31921.875000	-129.005234
31945.312500	-128.965317
31968.750000	-128.980820
31992.187500	-129.000977
32015.625000	-129.018188
32039.062500	-129.072052
32062.500000	-129.182755
32085.937500	-129.144165
32109.375000	-129.096985
32132.812500	-129.000046
32156.250000	-129.031235
32179.687500	-128.989487
32203.125000	-129.069473
32226.562500	-129.164307
32250.000000	-129.127701
32273.437500	-129.022491
32296.875000	-129.010345
32320.312500	-129.044800
32343.750000	-128.987244
32367.187500	-128.961685
32390.625000	-128.990189
32414.062500	-129.068726
32437.500000	-129.104874
32460.937500	-129.145874
32484.375000	-129.095718
32507.812500	-129.085983
32531.250000	-129.118195
32554.687500	-129.070831
32578.125000	-129.065659
32601.562500	-129.060883
32625.000000	-129.090179
32648.437500	-129.061783
32671.875000	-129.019516
32695.312500	-129.041931
32718.750000	-129.053482
32742.187500	-129.005203
32765.625000	-129.021805
32789.062500	-128.979065
32812.500000	-129.014481
32835.937500	-129.114059
32859.375000	-128.926270
32882.812500	-128.906708
32906.250000	-128.970642
32929.687500	-129.028427
32953.125000	-129.047729
32976.562500	-129.069138
33000.000000	-129.055206
33023.437500	-129.040390
33046.875000	-128.952072
33070.312500	-128.967056
33093.750000	-129.005493
33117.187500	-129.041824
33140.625000	-128.972824
33164.062500	-129.000031
33187.500000	-129.078918
33210.937500	-129.070312
33234.375000	-129.059235
33257.812500	-129.046555
33281.250000	-129.042877
33304.687500	-129.092026
33328.125000	-129.044479
33351.562500	-129.011230
33375.000000	-129.004379
33398.437500	-129.046555
33421.875000	-129.032700
33445.312500	-129.056992
33468.750000	-129.005615
33492.187500	-128.969864
33515.625000	-129.123489
33539.062500	-129.059479
33562.500000	-128.929779
33585.937500	-129.020554
33609.375000	-129.103256
33632.812500	-129.074707
33656.250000	-128.964874
33679.687500	-128.949890
33703.125000	-128.942978
33726.562500	-128.997849
33750.000000	-129.085342
33773.437500	-129.063568
33796.875000	-129.084839
33820.312500	-129.007141
33843.750000	-129.036865
33867.187500	-129.046661
33890.625000	-129.025726
33914.062500	-129.000473
33937.500000	-129.058792
33960.937500	-129.075455
33984.375000	-129.070282
34007.812500	-129.082489
34031.250000	-129.062714
34054.687500	-129.010483
34078.125000	-129.039886
34101.562500	-129.081879
34125.000000	-129.020630
34148.437500	-129.058304
34171.875000	-128.976334
34195.312500	-129.033585
34218.750000	-128.970764
34242.187500	-129.037674
34265.625000	-129.029709
34289.062500	-128.939606
34312.500000	-128.914581
34335.937500	-128.921814
34359.375000	-128.974731
34382.812500	-128.940979
34406.250000	-128.963760
34429.687500	-128.982086
34453.125000	-128.949127
34476.562500	-129.069321
34500.000000	-129.014267
34523.437500	-129.059113
34546.875000	-128.999878
34570.312500	-129.078674
34593.750000	-129.056183
34617.187500	-129.093002
34640.625000	-129.087448
34664.062500	-128.996811
34687.500000	-129.042511
34710.937500	-128.995422
34734.375000	-128.998108
34757.812500	-128.957031
34781.250000	-128.888824
34804.687500	-129.026947
34828.125000	-129.089081
34851.562500	-129.072479
34875.000000	-128.980682
34898.437500	-128.953049
34921.875000	-128.999557
34945.312500	-128.995514
34968.750000	-128.984756
34992.187500	-129.002609
35015.625000	-128.987549
35039.062500	-129.017059
35062.500000	-129.021271
35085.937500	-129.124603
35109.375000	-129.111725
35132.812500	-128.960129
35156.250000	-128.952087
35179.687500	-129.060028
35203.125000	-128.960449
35226.562500	-128.873749
35250.000000	-128.972015
35273.437500	-128.965210
35296.875000	-128.978668
35320.312500	-129.017853
35343.750000	-129.141907
35367.187500	-129.127472
35390.625000	-129.032440
35414.062500	-128.931839
35437.500000	-128.991211
35460.937500	-129.001556
35484.375000	-129.035217
35507.812500	-129.090118
35531.250000	-128.993317
35554.687500	-128.996460
35578.125000	-129.038391
35601.562500	-129.028122
35625.000000	-129.016937
35648.437500	-129.016983
35671.875000	-128.983643
35695.312500	-128.915314
35718.750000	-128.960953
35742.187500	-129.006531
35765.625000	-128.980728
35789.062500	-128.900497
35812.500000	-128.959991
35835.937500	-128.939331
35859.375000	-128.885590
35882.812500	-128.896179
35906.250000	-129.008850
35929.687500	-128.944336
35953.125000	-129.036209
35976.562500	-129.005707
36000.000000	-128.862747
36023.437500	-128.885895
36046.875000	-128.968765
36070.312500	-128.916199
36093.750000	-128.919449
36117.187500	-128.977951
36140.625000	-128.964478
36164.062500	-129.002792
36187.500000	-128.957825
36210.937500	-128.935760
36234.375000	-128.954132
36257.812500	-128.994308
36281.250000	-129.045715
36304.687500	-128.921097
36328.125000	-128.898285
36351.562500	-128.933472
36375.000000	-128.991302
36398.437500	-128.921021
36421.875000	-128.941116
36445.312500	-128.929688
36468.750000	-128.883316
36492.187500	-128.917328
36515.625000	-128.995636
36539.062500	-129.051956
36562.500000	-129.019745
36585.937500	-128.909561
36609.375000	-128.940430
36632.812500	-128.974045
36656.250000	-128.966721
36679.687500	-128.902969
36703.125000	-128.966125
36726.562500	-128.898071
36750.000000	-128.874146
36773.437500	-128.886353
36796.875000	-128.957947
36820.312500	-128.953262
36843.750000	-128.944305
36867.187500	-129.021683
36890.625000	-128.979599
36914.062500	-128.963562
36937.500000	-128.928543
36960.937500	-128.907394
36984.375000	-128.875732
37007.812500	-128.897858
37031.250000	-128.943710
37054.687500	-128.924149
37078.125000	-128.844803
37101.562500	-128.875656
37125.000000	-128.893753
37148.437500	-128.906158
37171.875000	-128.994415
37195.312500	-128.993225
37218.750000	-128.936859
37242.187500	-128.980728
37265.625000	-128.922562
37289.062500	-128.890091
37312.500000	-128.968521
37335.937500	-128.971985
37359.375000	-128.929581
37382.812500	-128.934662
37406.250000	-128.936096
37429.687500	-128.888397
37453.125000	-128.978302
37476.562500	-128.949890
37500.000000	-129.018570
37523.437500	-129.006058
37546.875000	-128.986694
37570.312500	-128.968140
37593.750000	-128.922638
37617.187500	-128.934814
37640.625000	-128.977600
37664.062500	-128.935455
37687.500000	-128.942490
37710.937500	-128.972778
37734.375000	-128.976746
37757.812500	-128.941406
37781.250000	-128.905472
37804.687500	-128.969849
37828.125000	-128.954651
37851.562500	-128.893463
37875.000000	-128.893646
37898.437500	-128.858414
37921.875000	-128.922607
37945.312500	-128.922958
37968.750000	-128.933121
37992.187500	-128.919876
38015.625000	-128.962997
38039.062500	-128.871796
38062.500000	-128.858490
38085.937500	-128.931137
38109.375000	-128.921463
38132.812500	-128.930176
38156.250000	-128.917862
38179.687500	-128.916718
38203.125000	-128.885788
38226.562500	-128.808060
38250.000000	-128.897018
38273.437500	-128.997971
38296.875000	-128.925140
38320.312500	-128.789719
38343.750000	-128.803177
38367.187500	-128.818848
38390.625000	-128.853760
38414.062500	-128.879776
38437.500000	-128.837692
38460.937500	-128.845779
38484.375000	-128.928391
38507.812500	-128.920151
38531.250000	-128.946899
38554.687500	-128.992218
38578.125000	-128.925049
38601.562500	-128.879333
38625.000000	-128.745163
38648.437500	-128.833221
38671.875000	-128.909653
38695.312500	-128.832687
38718.750000	-128.874634
38742.187500	-128.843018
38765.625000	-128.920044
38789.062500	-128.946899
38812.500000	-128.915024
38835.937500	-128.903259
38859.375000	-128.829407
38882.812500	-128.798706
38906.250000	-128.845795
38929.687500	-128.797394
38953.125000	-128.820938
38976.562500	-128.895309
39000.000000	-128.879395
39023.437500	-128.870804
39046.875000	-128.907394
39070.312500	-128.927750
39093.750000	-128.881378
39117.187500	-128.948990
39140.625000	-128.844177
39164.062500	-128.826874
39187.500000	-128.840546
39210.937500	-128.949295
39234.375000	-128.934052
39257.812500	-128.964233
39281.250000	-128.894974
39304.687500	-128.849228
39328.125000	-128.850739
39351.562500	-128.842163
39375.000000	-128.921143
39398.437500	-128.940491
39421.875000	-128.828354
39445.312500	-128.904938
39468.750000	-128.788040
39492.187500	-128.745499
39515.625000	-128.791916
39539.062500	-128.789444
39562.500000	-128.837524
39585.937500	-128.915146
39609.375000	-128.964600
39632.812500	-128.778671
39656.250000	-128.734482
39679.687500	-128.813950
39703.125000	-128.805405
39726.562500	-128.738663
39750.000000	-128.833969
39773.437500	-128.874191
39796.875000	-128.865585
39820.312500	-128.936890
39843.750000	-128.900803
39867.187500	-128.845871
39890.625000	-128.841400
39914.062500	-128.816513
39937.500000	-128.771317
39960.937500	-128.825821
39984.375000	-128.770401
40007.812500	-128.891083
40031.250000	-128.879257
40054.687500	-128.862488
40078.125000	-128.943695
40101.562500	-128.950623
40125.000000	-128.960938
40148.437500	-128.805588
40171.875000	-128.825211
40195.312500	-128.903915
40218.750000	-128.895737
40242.187500	-128.832474
40265.625000	-128.699387
40289.062500	-128.822845
40312.500000	-128.892334
40335.937500	-128.840454
40359.375000	-128.928375
40382.812500	-128.885681
40406.250000	-128.888412
40429.687500	-128.806152
40453.125000	-128.898117
40476.562500	-128.867264
40500.000000	-128.806778
40523.437500	-128.881317
40546.875000	-128.791031
40570.312500	-128.782761
40593.750000	-128.754715
40617.187500	-128.930496
40640.625000	-128.904831
40664.062500	-128.837189
40687.500000	-128.906708
40710.937500	-128.955414
40734.375000	-128.779037
40757.812500	-128.822327
40781.250000	-128.831177
40804.687500	-128.802231
40828.125000	-128.878098
40851.562500	-128.961334
40875.000000	-128.896515
40898.437500	-128.933044
40921.875000	-128.935104
40945.312500	-128.978760
40968.750000	-128.881042
40992.187500	-128.841278
41015.625000	-128.915131
41039.062500	-128.909271
41062.500000	-128.874893
41085.937500	-128.895325
41109.375000	-128.872559
41132.812500	-128.731476
41156.250000	-128.886795
41179.687500	-128.946579
41203.125000	-128.869156
41226.562500	-128.848053
41250.000000	-128.803223
41273.437500	-128.878204
41296.875000	-128.911926
41320.312500	-128.923264
41343.750000	-128.868073
41367.187500	-128.806000
41390.625000	-128.901047
41414.062500	-128.982697
41437.500000	-129.029297
41460.937500	-128.921814
41484.375000	-129.000198
41507.812500	-128.958710
41531.250000	-128.964417
41554.687500	-128.895737
41578.125000	-128.891449
41601.562500	-128.937195
41625.000000	-128.921478
41648.437500	-128.912430
41671.875000	-128.954575
41695.312500	-128.978836
41718.750000	-128.985443
41742.187500	-128.927032
41765.625000	-128.849197
41789.062500	-128.947525
41812.500000	-128.919357
41835.937500	-128.939117
41859.375000	-128.997253
41882.812500	-128.946701
41906.250000	-128.994980
41929.687500	-129.052048
41953.125000	-128.999542
41976.562500	-128.940552
42000.000000	-129.010223
42023.437500	-128.946228
42046.875000	-128.964966
42070.312500	-129.032440
42093.750000	-128.974411
42117.187500	-128.969086
42140.625000	-129.068741
42164.062500	-129.001556
42187.500000	-128.910522
42210.937500	-129.010132
42234.375000	-129.023651
42257.812500	-129.059189
42281.250000	-129.060593
42304.687500	-129.059891
42328.125000	-129.042252
42351.562500	-129.068069
42375.000000	-129.040207
42398.437500	-129.131989
42421.875000	-129.152481
42445.312500	-129.120026
42468.750000	-129.195343
42492.187500	-129.109756
42515.625000	-129.100266
42539.062500	-129.071426
42562.500000	-129.061935
42585.937500	-129.178116
42609.375000	-129.129745
42632.812500	-129.156769
42656.250000	-129.175064
42679.687500	-129.101868
42703.125000	-129.042755
42726.562500	-129.165955
42750.000000	-129.180939
42773.437500	-129.208817
42796.875000	-129.182556
42820.312500	-129.196548
42843.750000	-129.188965
42867.187500	-129.249237
42890.625000	-129.164841
42914.062500	-129.165878
42937.500000	-129.143600
42960.937500	-129.105728
42984.375000	-129.041733
43007.812500	-129.122192
43031.250000	-129.275757
43054.687500	-129.211456
43078.125000	-129.096848
43101.562500	-129.198807
43125.000000	-129.282730
43148.437500	-129.342773
43171.875000	-129.290039
43195.312500	-129.243591
43218.750000	-129.278473
43242.187500	-129.324539
43265.625000	-129.328705
43289.062500	-129.256927
43312.500000	-129.288712
43335.937500	-129.295029
43359.375000	-129.313293
43382.812500	-129.334381
43406.250000	-129.316696
43429.687500	-129.263687
43453.125000	-129.224472
43476.562500	-129.194473
43500.000000	-129.303268
43523.437500	-129.363022
43546.875000	-129.305847
43570.312500	-129.347961
43593.750000	-129.334305
43617.187500	-129.377625
43640.625000	-129.432419
43664.062500	-129.491394
43687.500000	-129.425629
43710.937500	-129.365143
43734.375000	-129.398727
43757.812500	-129.523865
43781.250000	-129.587677
43804.687500	-129.595993
43828.125000	-129.528610
43851.562500	-129.436523
43875.000000	-129.379333
43898.437500	-129.436707
43921.875000	-129.519928
43945.312500	-129.555069
43968.750000	-129.577209
43992.187500	-129.584991
44015.625000	-129.538864
44039.062500	-129.564758
44062.500000	-129.537140
44085.937500	-129.563675
44109.375000	-129.648727
44132.812500	-129.628555
44156.250000	-129.633713
44179.687500	-129.634079
44203.125000	-129.729584
44226.562500	-129.767700
44250.000000	-129.667618
44273.437500	-129.624054
44296.875000	-129.581604
44320.312500	-129.600555
44343.750000	-129.748901
44367.187500	-129.775772
44390.625000	-129.734848
44414.062500	-129.721802
44437.500000	-129.581329
44460.937500	-129.732895
44484.375000	-129.790268
44507.812500	-129.814102
44531.250000	-129.911072
44554.687500	-129.869873
44578.125000	-129.845352
44601.562500	-129.780273
44625.000000	-129.749344
44648.437500	-129.844345
44671.875000	-129.946014
44695.312500	-129.988068
44718.750000	-129.949142
44742.187500	-129.826889
44765.625000	-129.775116
44789.062500	-129.870728
44812.500000	-129.957626
44835.937500	-130.067062
44859.375000	-130.021835
44882.812500	-130.041687
44906.250000	-130.032043
44929.687500	-129.973145
44953.125000	-130.079590
44976.562500	-130.024689
45000.000000	-130.048416
45023.437500	-130.102264
45046.875000	-130.048782
45070.312500	-130.060303
45093.750000	-130.132507
45117.187500	-130.044693
45140.625000	-130.058350
45164.062500	-130.134735
45187.500000	-130.156799
45210.937500	-130.144287
45234.375000	-130.169312
45257.812500	-130.244232
45281.250000	-130.203842
45304.687500	-130.216629
45328.125000	-130.179413
45351.562500	-130.219086
45375.000000	-130.249969
45398.437500	-130.236404
45421.875000	-130.209747
45445.312500	-130.249191
45468.750000	-130.261093
45492.187500	-130.226547
45515.625000	-130.269165
45539.062500	-130.344482
45562.500000	-130.381012
45585.937500	-130.300797
45609.375000	-130.413086
45632.812500	-130.465195
45656.250000	-130.462326
45679.687500	-130.480896
45703.125000	-130.455460
45726.562500	-130.444962
45750.000000	-130.522537
45773.437500	-130.464783
45796.875000	-130.443329
45820.312500	-130.414719
45843.750000	-130.483200
45867.187500	-130.515045
45890.625000	-130.520279
45914.062500	-130.559814
45937.500000	-130.630920
45960.937500	-130.602753
45984.375000	-130.690491
46007.812500	-130.682388
46031.250000	-130.661377
46054.687500	-130.669922
46078.125000	-130.636841
46101.562500	-130.553543
46125.000000	-130.588470
46148.437500	-130.702621
46171.875000	-130.739044
46195.312500	-130.824722
46218.750000	-130.776428
46242.187500	-130.735962
46265.625000	-130.663956
46289.062500	-130.784210
46312.500000	-130.883499
46335.937500	-130.918839
46359.375000	-130.818542
46382.812500	-130.878998
46406.250000	-130.735916
46429.687500	-130.822891
46453.125000	-130.876892
46476.562500	-130.870270
46500.000000	-130.868561
46523.437500	-130.938766
46546.875000	-130.994370
46570.312500	-131.001526
46593.750000	-130.942047
46617.187500	-130.952759
46640.625000	-131.038483
46664.062500	-131.019516
46687.500000	-130.985703
46710.937500	-130.926010
46734.375000	-130.998734
46757.812500	-131.042572
46781.250000	-130.921356
46804.687500	-130.985092
46828.125000	-130.993683
46851.562500	-130.968353
46875.000000	-130.995956
46898.437500	-131.052063
46921.875000	-131.072830
46945.312500	-131.096436
46968.750000	-131.133362
46992.187500	-131.173080
47015.625000	-131.162003
47039.062500	-131.108429
47062.500000	-131.204498
47085.937500	-131.212982
47109.375000	-131.128525
47132.812500	-131.129395
47156.250000	-131.278229
47179.687500	-131.277283
47203.125000	-131.204559
47226.562500	-131.209030
47250.000000	-131.247223
47273.437500	-131.259964
47296.875000	-131.221741
47320.312500	-131.252426
47343.750000	-131.249390
47367.187500	-131.233307
47390.625000	-131.203247
47414.062500	-131.203903
47437.500000	-131.310181
47460.937500	-131.275528
47484.375000	-131.363678
47507.812500	-131.361542
47531.250000	-131.302109
47554.687500	-131.256592
47578.125000	-131.248047
47601.562500	-131.313446
47625.000000	-131.320770
47648.437500	-131.318649
47671.875000	-131.228775
47695.312500	-131.333603
47718.750000	-131.284393
47742.187500	-131.291412
47765.625000	-131.301880
47789.062500	-131.339066
47812.500000	-131.329910
47835.937500	-131.333023
47859.375000	-131.330566
47882.812500	-131.392670
47906.250000	-131.378586
47929.687500	-131.352463
47953.125000	-131.237366
47976.562500	-131.268112
