주파수 (Hz)	레벨 (dB)
23.437500	-83.983871
46.875000	-68.919334
70.312500	-56.363968
93.750000	-49.610275
117.187500	-50.404320
140.625000	-53.020573
164.062500	-53.558800
187.500000	-47.794437
210.937500	-44.125439
234.375000	-45.525040
257.812500	-47.093266
281.250000	-48.182045
304.687500	-49.687622
328.125000	-51.274448
351.562500	-48.985661
375.000000	-48.932014
398.437500	-45.562504
421.875000	-45.079845
445.312500	-49.779263
468.750000	-48.156353
492.187500	-50.892391
515.625000	-49.115185
539.062500	-48.952034
562.500000	-49.135551
585.937500	-47.125912
609.375000	-46.396935
632.812500	-46.173050
656.250000	-54.014767
679.687500	-53.319553
703.125000	-49.002266
726.562500	-51.279964
750.000000	-54.826153
773.437500	-53.936760
796.875000	-53.553398
820.312500	-51.059593
843.750000	-50.451077
867.187500	-59.178120
890.625000	-61.222195
914.062500	-58.521210
937.500000	-53.955742
960.937500	-54.418312
984.375000	-50.186649
1007.812500	-52.847565
1031.250000	-54.527733
1054.687500	-51.840111
1078.125000	-57.356022
1101.562500	-54.938339
1125.000000	-54.616383
1148.437500	-58.929951
1171.875000	-52.196968
1195.312500	-52.605946
1218.750000	-53.430115
1242.187500	-45.355621
1265.625000	-47.044415
1289.062500	-58.141052
1312.500000	-54.279182
1335.937500	-55.116371
1359.375000	-60.139126
1382.812500	-51.800735
1406.250000	-49.317947
1429.687500	-55.243793
1453.125000	-60.750587
1476.562500	-56.639301
1500.000000	-56.692150
1523.437500	-63.932175
1546.875000	-60.695198
1570.312500	-52.031948
1593.750000	-52.708160
1617.187500	-61.548702
1640.625000	-61.547821
1664.062500	-56.543274
1687.500000	-56.216862
1710.937500	-64.679344
1734.375000	-66.479897
1757.812500	-64.023254
1781.250000	-65.145905
1804.687500	-70.009605
1828.125000	-71.245636
1851.562500	-62.354900
1875.000000	-56.370888
1898.437500	-59.268364
1921.875000	-68.758377
1945.312500	-70.811668
1968.750000	-67.646355
1992.187500	-68.471695
2015.625000	-72.797592
2039.062500	-76.620644
2062.500000	-74.286438
2085.937500	-68.764412
2109.375000	-63.957726
2132.812500	-66.028290
2156.250000	-75.079865
2179.687500	-75.740364
2203.125000	-72.561554
2226.562500	-70.173843
2250.000000	-70.621025
2273.437500	-76.251503
2296.875000	-78.853989
2320.312500	-75.808342
2343.750000	-72.574150
2367.187500	-68.600883
2390.625000	-69.847145
2414.062500	-76.702271
2437.500000	-76.507599
2460.937500	-77.473152
2484.375000	-74.898201
2507.812500	-68.894272
2531.250000	-68.905769
2554.687500	-76.944153
2578.125000	-81.224518
2601.562500	-81.511200
2625.000000	-80.578232
2648.437500	-75.869339
2671.875000	-75.178490
2695.312500	-79.547218
2718.750000	-81.410683
2742.187500	-78.350029
2765.625000	-77.121033
2789.062500	-75.661018
2812.500000	-68.169746
2835.937500	-65.812912
2859.375000	-72.184776
2882.812500	-81.517181
2906.250000	-82.751137
2929.687500	-80.432892
2953.125000	-73.422813
2976.562500	-72.485397
3000.000000	-73.261032
3023.437500	-76.698471
3046.875000	-81.994408
3070.312500	-84.534531
3093.750000	-79.916664
3117.187500	-81.034538
3140.625000	-78.353371
3164.062500	-72.064384
3187.500000	-70.107918
3210.937500	-71.251030
3234.375000	-78.050804
3257.812500	-85.454834
3281.250000	-84.581589
3304.687500	-82.039574
3328.125000	-75.565948
3351.562500	-73.319267
3375.000000	-71.962204
3398.437500	-74.986504
3421.875000	-80.680511
3445.312500	-85.994667
3468.750000	-88.321083
3492.187500	-87.910042
3515.625000	-87.128639
3539.062500	-80.722084
3562.500000	-75.066475
3585.937500	-76.864082
3609.375000	-78.314415
3632.812500	-80.490471
3656.250000	-86.392838
3679.687500	-85.829399
3703.125000	-82.758850
3726.562500	-82.710197
3750.000000	-80.543983
3773.437500	-77.950928
3796.875000	-75.328560
3820.312500	-74.120560
3843.750000	-76.424164
3867.187500	-83.022720
3890.625000	-88.974228
3914.062500	-90.195450
3937.500000	-91.766685
3960.937500	-89.754791
3984.375000	-84.347473
4007.812500	-83.270317
4031.250000	-85.026611
4054.687500	-87.209526
4078.125000	-87.018555
4101.562500	-88.725349
4125.000000	-92.571587
4148.437500	-89.773033
4171.875000	-85.974403
4195.312500	-85.078606
4218.750000	-85.590057
4242.187500	-81.484344
4265.625000	-78.710030
4289.062500	-80.354149
4312.500000	-82.775749
4335.937500	-82.130981
4359.375000	-85.638435
4382.812500	-91.357285
4406.250000	-93.191940
4429.687500	-94.178581
4453.125000	-91.584717
4476.562500	-87.579239
4500.000000	-85.748726
4523.437500	-84.132858
4546.875000	-82.646828
4570.312500	-79.218750
4593.750000	-82.141266
4617.187500	-89.904968
4640.625000	-92.918495
4664.062500	-93.089935
4687.500000	-93.302490
4710.937500	-92.413994
4734.375000	-86.783920
4757.812500	-86.366974
4781.250000	-86.737930
4804.687500	-84.791809
4828.125000	-83.776039
4851.562500	-84.675781
4875.000000	-89.031700
4898.437500	-92.476440
4921.875000	-87.945107
4945.312500	-88.132195
4968.750000	-92.735977
4992.187500	-95.553421
5015.625000	-94.044334
5039.062500	-90.253204
5062.500000	-85.013252
5085.937500	-86.436157
5109.375000	-84.277359
5132.812500	-80.198616
5156.250000	-80.546326
5179.687500	-82.559601
5203.125000	-88.298088
5226.562500	-88.305031
5250.000000	-90.624275
5273.437500	-95.547897
5296.875000	-99.120613
5320.312500	-98.174370
5343.750000	-97.710663
5367.187500	-96.270325
5390.625000	-93.741028
5414.062500	-89.719116
5437.500000	-91.723351
5460.937500	-96.768990
5484.375000	-96.713280
5507.812500	-95.877655
5531.250000	-96.468529
5554.687500	-96.343170
5578.125000	-99.931175
5601.562500	-100.619133
5625.000000	-100.294762
5648.437500	-100.724342
5671.875000	-99.146667
5695.312500	-91.811707
5718.750000	-88.237694
5742.187500	-89.242584
5765.625000	-89.977356
5789.062500	-90.462357
5812.500000	-88.735008
5835.937500	-89.393768
5859.375000	-93.676353
5882.812500	-98.667007
5906.250000	-97.024475
5929.687500	-96.266144
5953.125000	-100.235527
5976.562500	-101.793327
6000.000000	-101.318398
6023.437500	-103.223396
6046.875000	-101.671638
6070.312500	-92.426811
6093.750000	-87.877472
6117.187500	-91.229843
6140.625000	-91.864868
6164.062500	-87.794464
6187.500000	-87.938362
6210.937500	-92.601486
6234.375000	-96.702126
6257.812500	-102.171875
6281.250000	-103.904068
6304.687500	-102.431282
6328.125000	-102.435730
6351.562500	-102.681015
6375.000000	-103.940819
6398.437500	-103.861763
6421.875000	-104.191055
6445.312500	-103.987816
6468.750000	-98.769028
6492.187500	-92.443024
6515.625000	-88.344147
6539.062500	-90.115685
6562.500000	-95.465118
6585.937500	-93.122101
6609.375000	-91.799500
6632.812500	-96.743279
6656.250000	-100.595001
6679.687500	-96.845192
6703.125000	-99.552528
6726.562500	-101.383041
6750.000000	-102.192848
6773.437500	-103.229706
6796.875000	-103.637375
6820.312500	-102.806885
6843.750000	-101.655975
6867.187500	-98.581039
6890.625000	-93.406776
6914.062500	-91.180435
6937.500000	-87.651215
6960.937500	-88.075661
6984.375000	-92.610146
7007.812500	-94.887665
7031.250000	-96.705780
7054.687500	-100.158302
7078.125000	-102.366516
7101.562500	-103.437523
7125.000000	-103.523651
7148.437500	-103.787010
7171.875000	-105.470634
7195.312500	-105.193184
7218.750000	-105.777969
7242.187500	-105.513680
7265.625000	-102.546532
7289.062500	-102.653465
7312.500000	-103.460999
7335.937500	-100.019257
7359.375000	-92.639008
7382.812500	-91.526222
7406.250000	-90.135689
7429.687500	-94.087303
7453.125000	-99.922989
7476.562500	-98.111183
7500.000000	-99.702423
7523.437500	-102.315224
7546.875000	-103.935707
7570.312500	-102.113312
7593.750000	-105.638634
7617.187500	-106.192307
7640.625000	-107.930550
7664.062500	-109.751282
7687.500000	-110.252899
7710.937500	-109.734718
7734.375000	-108.972458
7757.812500	-108.086716
7781.250000	-105.835297
7804.687500	-102.340233
7828.125000	-99.900902
7851.562500	-95.515427
7875.000000	-91.172997
7898.437500	-91.653427
7921.875000	-95.770340
7945.312500	-98.260025
7968.750000	-95.153976
7992.187500	-92.196770
8015.625000	-92.317444
8039.062500	-100.299484
8062.500000	-103.780945
8085.937500	-105.398262
8109.375000	-106.487770
8132.812500	-108.343987
8156.250000	-109.532562
8179.687500	-110.156128
8203.125000	-109.655319
8226.562500	-108.557304
8250.000000	-104.978653
8273.437500	-97.687607
8296.875000	-95.124374
8320.312500	-96.862991
8343.750000	-99.391037
8367.187500	-102.761940
8390.625000	-108.108948
8414.062500	-108.881126
8437.500000	-107.657394
8460.937500	-107.342735
8484.375000	-108.348457
8507.812500	-109.785439
8531.250000	-108.886360
8554.687500	-108.270218
8578.125000	-108.341927
8601.562500	-108.921608
8625.000000	-109.812080
8648.437500	-109.811264
8671.875000	-110.010506
8695.312500	-109.634903
8718.750000	-109.659630
8742.187500	-108.861641
8765.625000	-108.526344
8789.062500	-106.500000
8812.500000	-102.233665
8835.937500	-102.424194
8859.375000	-98.058510
8882.812500	-94.060287
8906.250000	-96.607063
8929.687500	-99.582352
8953.125000	-99.746857
8976.562500	-100.417542
9000.000000	-99.288101
9023.437500	-99.456963
9046.875000	-100.404388
9070.312500	-100.797470
9093.750000	-101.123970
9117.187500	-100.641525
9140.625000	-103.529854
9164.062500	-107.443909
9187.500000	-112.587509
9210.937500	-113.187706
9234.375000	-112.244331
9257.812500	-112.302689
9281.250000	-112.859535
9304.687500	-112.455040
9328.125000	-112.274437
9351.562500	-111.986588
9375.000000	-110.374596
9398.437500	-108.188690
9421.875000	-108.979256
9445.312500	-110.428711
9468.750000	-105.632111
9492.187500	-103.094719
9515.625000	-106.673973
9539.062500	-112.827950
9562.500000	-113.546936
9585.937500	-111.002693
9609.375000	-105.362297
9632.812500	-104.658997
9656.250000	-104.294037
9679.687500	-104.501236
9703.125000	-104.337708
9726.562500	-106.617096
9750.000000	-108.011909
9773.437500	-109.861374
9796.875000	-111.647255
9820.312500	-112.701508
9843.750000	-113.721657
9867.187500	-113.677589
9890.625000	-111.840370
9914.062500	-111.796791
9937.500000	-111.595741
9960.937500	-110.180817
9984.375000	-109.328255
10007.812500	-103.360390
10031.250000	-102.261475
10054.687500	-104.115654
10078.125000	-103.099770
10101.562500	-104.066399
10125.000000	-105.703918
10148.437500	-105.933701
10171.875000	-105.733917
10195.312500	-107.225784
10218.750000	-110.743156
10242.187500	-110.668221
10265.625000	-105.787041
10289.062500	-103.579979
10312.500000	-105.739571
10335.937500	-111.408806
10359.375000	-112.252266
10382.812500	-110.256950
10406.250000	-110.501518
10429.687500	-112.174530
10453.125000	-113.058937
10476.562500	-115.494812
10500.000000	-115.141487
10523.437500	-113.989021
10546.875000	-115.144920
10570.312500	-116.495918
10593.750000	-116.481079
10617.187500	-116.111046
10640.625000	-117.779716
10664.062500	-117.765556
10687.500000	-117.196442
10710.937500	-116.462685
10734.375000	-115.632797
10757.812500	-115.207985
10781.250000	-113.411362
10804.687500	-109.420319
10828.125000	-105.715492
10851.562500	-108.917847
10875.000000	-108.907150
10898.437500	-108.879189
10921.875000	-113.091347
10945.312500	-110.254417
10968.750000	-107.375389
10992.187500	-110.092926
11015.625000	-111.991135
11039.062500	-109.556892
11062.500000	-108.185791
11085.937500	-110.066917
11109.375000	-110.227211
11132.812500	-111.721542
11156.250000	-113.345039
11179.687500	-113.947159
11203.125000	-112.867996
11226.562500	-112.111816
11250.000000	-112.526100
11273.437500	-114.464630
11296.875000	-114.169655
11320.312500	-115.803703
11343.750000	-116.218575
11367.187500	-113.869850
11390.625000	-114.836731
11414.062500	-114.801758
11437.500000	-114.872192
11460.937500	-115.586403
11484.375000	-114.894585
11507.812500	-114.546295
11531.250000	-114.417397
11554.687500	-114.237595
11578.125000	-112.932632
11601.562500	-111.739059
11625.000000	-112.848244
11648.437500	-112.749397
11671.875000	-113.861366
11695.312500	-112.374382
11718.750000	-112.786240
11742.187500	-115.305664
11765.625000	-115.473228
11789.062500	-115.503441
11812.500000	-116.262360
11835.937500	-116.632751
11859.375000	-113.498680
11882.812500	-108.361244
11906.250000	-107.359207
11929.687500	-111.558495
11953.125000	-115.696739
11976.562500	-117.559776
12000.000000	-117.266281
12023.437500	-116.625938
12046.875000	-116.188858
12070.312500	-116.595390
12093.750000	-114.937622
12117.187500	-111.840256
12140.625000	-113.338211
12164.062500	-112.951904
12187.500000	-114.665215
12210.937500	-116.575859
12234.375000	-114.667503
12257.812500	-115.372856
12281.250000	-116.630333
12304.687500	-115.060585
12328.125000	-113.549179
12351.562500	-114.444489
12375.000000	-116.021461
12398.437500	-118.219841
12421.875000	-118.440315
12445.312500	-116.772385
12468.750000	-113.196114
12492.187500	-110.518837
12515.625000	-110.897392
12539.062500	-112.663780
12562.500000	-113.042816
12585.937500	-113.096062
12609.375000	-112.537872
12632.812500	-113.664665
12656.250000	-113.923172
12679.687500	-113.618820
12703.125000	-115.128815
12726.562500	-115.959717
12750.000000	-114.963890
12773.437500	-116.992752
12796.875000	-118.403168
12820.312500	-117.712524
12843.750000	-118.300407
12867.187500	-119.557945
12890.625000	-119.660027
12914.062500	-119.723656
12937.500000	-119.576469
12960.937500	-119.224464
12984.375000	-118.560364
13007.812500	-118.027031
13031.250000	-118.679710
13054.687500	-119.337868
13078.125000	-119.690292
13101.562500	-118.084206
13125.000000	-112.222321
13148.437500	-110.104927
13171.875000	-114.012749
13195.312500	-115.381058
13218.750000	-115.862305
13242.187500	-112.572319
13265.625000	-111.989754
13289.062500	-115.748100
13312.500000	-118.480812
13335.937500	-120.803284
13359.375000	-121.125389
13382.812500	-120.667389
13406.250000	-119.562286
13429.687500	-118.587219
13453.125000	-117.856812
13476.562500	-117.896751
13500.000000	-117.007629
13523.437500	-116.533897
13546.875000	-118.519318
13570.312500	-119.743797
13593.750000	-120.318726
13617.187500	-120.150673
13640.625000	-119.670425
13664.062500	-118.981644
13687.500000	-118.924690
13710.937500	-119.460411
13734.375000	-120.341911
13757.812500	-120.748077
13781.250000	-120.750061
13804.687500	-120.768341
13828.125000	-120.587852
13851.562500	-120.331009
13875.000000	-119.344925
13898.437500	-118.213562
13921.875000	-118.788437
13945.312500	-119.814537
13968.750000	-120.169289
13992.187500	-119.591942
14015.625000	-119.346558
14039.062500	-119.322250
14062.500000	-117.170891
14085.937500	-116.308426
14109.375000	-115.449959
14132.812500	-115.528397
14156.250000	-115.251869
14179.687500	-114.425507
14203.125000	-115.483124
14226.562500	-118.603500
14250.000000	-119.933197
14273.437500	-120.575272
14296.875000	-121.023087
14320.312500	-121.137741
14343.750000	-120.992340
14367.187500	-121.082420
14390.625000	-120.365295
14414.062500	-118.112801
14437.500000	-115.650520
14460.937500	-116.667854
14484.375000	-121.244896
14507.812500	-122.527504
14531.250000	-123.210152
14554.687500	-122.988914
14578.125000	-123.018272
14601.562500	-122.318916
14625.000000	-121.021637
14648.437500	-120.675117
14671.875000	-119.656982
14695.312500	-118.351524
14718.750000	-118.652199
14742.187500	-119.495636
14765.625000	-119.365593
14789.062500	-120.449066
14812.500000	-121.523109
14835.937500	-121.278130
14859.375000	-120.232239
14882.812500	-118.246391
14906.250000	-118.393936
14929.687500	-120.825005
14953.125000	-122.031601
14976.562500	-121.565842
15000.000000	-120.942932
15023.437500	-120.119118
15046.875000	-119.591957
15070.312500	-118.962334
15093.750000	-118.761482
15117.187500	-120.108879
15140.625000	-120.965668
15164.062500	-120.951851
15187.500000	-121.539955
15210.937500	-121.035698
15234.375000	-120.552498
15257.812500	-120.097511
15281.250000	-118.690208
15304.687500	-118.590813
15328.125000	-120.537903
15351.562500	-121.142174
15375.000000	-119.759476
15398.437500	-117.175438
15421.875000	-118.953995
15445.312500	-120.575226
15468.750000	-120.314484
15492.187500	-121.662270
15515.625000	-122.466965
15539.062500	-123.108025
15562.500000	-123.520393
15585.937500	-123.110474
15609.375000	-123.237030
15632.812500	-123.297546
15656.250000	-122.779312
15679.687500	-122.784767
15703.125000	-122.460075
15726.562500	-121.837029
15750.000000	-121.891281
15773.437500	-121.498299
15796.875000	-121.257278
15820.312500	-120.834602
15843.750000	-121.421989
15867.187500	-122.293335
15890.625000	-121.699829
15914.062500	-121.231705
15937.500000	-121.461319
15960.937500	-121.955032
15984.375000	-123.569923
16007.812500	-124.311180
16031.250000	-124.157318
16054.687500	-123.689575
16078.125000	-123.915009
16101.562500	-123.909370
16125.000000	-123.287476
16148.437500	-123.214890
16171.875000	-124.185532
16195.312500	-124.409958
16218.750000	-123.764740
16242.187500	-122.350914
16265.625000	-120.594009
16289.062500	-120.762131
16312.500000	-121.405273
16335.937500	-121.551292
16359.375000	-122.482307
16382.812500	-121.973404
16406.250000	-122.438194
16429.687500	-123.559464
16453.125000	-123.957657
16476.562500	-123.343895
16500.000000	-122.793839
16523.437500	-123.266052
16546.875000	-124.185867
16570.312500	-124.669266
16593.750000	-125.202568
16617.187500	-124.801727
16640.625000	-124.863480
16664.062500	-124.817429
16687.500000	-124.452881
16710.937500	-125.172173
16734.375000	-125.728973
16757.812500	-125.189186
16781.250000	-124.654587
16804.687500	-123.828903
16828.125000	-122.203758
16851.562500	-121.647644
16875.000000	-121.967720
16898.437500	-122.450081
16921.875000	-121.674393
16945.312500	-122.021385
16968.750000	-120.979683
16992.187500	-118.148857
17015.625000	-117.044556
17039.062500	-119.755531
17062.500000	-122.593063
17085.937500	-123.294418
17109.375000	-123.510117
17132.812500	-123.130890
17156.250000	-122.507996
17179.687500	-121.058708
17203.125000	-120.365097
17226.562500	-121.638672
17250.000000	-121.889473
17273.437500	-121.619080
17296.875000	-122.861122
17320.312500	-124.045433
17343.750000	-125.038948
17367.187500	-125.106400
17390.625000	-124.452187
17414.062500	-124.258202
17437.500000	-124.200813
17460.937500	-124.027962
17484.375000	-123.814339
17507.812500	-124.223022
17531.250000	-124.421593
17554.687500	-124.289810
17578.125000	-123.855637
17601.562500	-124.210587
17625.000000	-124.808182
17648.437500	-125.798569
17671.875000	-126.189697
17695.312500	-126.316772
17718.750000	-126.355217
17742.187500	-126.036041
17765.625000	-126.041382
17789.062500	-126.396851
17812.500000	-126.341019
17835.937500	-125.849785
17859.375000	-124.860703
17882.812500	-123.730141
17906.250000	-122.870979
17929.687500	-123.749214
17953.125000	-124.865120
17976.562500	-125.428749
18000.000000	-123.824982
18023.437500	-122.770844
18046.875000	-123.178436
18070.312500	-122.758606
18093.750000	-123.328682
18117.187500	-124.032661
18140.625000	-124.559502
18164.062500	-124.255234
18187.500000	-125.258484
18210.937500	-126.113342
18234.375000	-126.801369
18257.812500	-127.166138
18281.250000	-126.738937
18304.687500	-126.313629
18328.125000	-126.296135
18351.562500	-126.623901
18375.000000	-126.236000
18398.437500	-125.852936
18421.875000	-125.488449
18445.312500	-125.325386
18468.750000	-125.222458
18492.187500	-125.229118
18515.625000	-125.770134
18539.062500	-125.243248
18562.500000	-124.563614
18585.937500	-124.549118
18609.375000	-124.944778
18632.812500	-125.160492
18656.250000	-125.154701
18679.687500	-125.083061
18703.125000	-124.984657
18726.562500	-124.892403
18750.000000	-124.741699
18773.437500	-124.968155
18796.875000	-125.186150
18820.312500	-125.728928
18843.750000	-126.156059
18867.187500	-126.293602
18890.625000	-126.564537
18914.062500	-126.611519
18937.500000	-126.077950
18960.937500	-126.502243
18984.375000	-126.947670
19007.812500	-127.055214
19031.250000	-127.280022
19054.687500	-127.157722
19078.125000	-126.876289
19101.562500	-126.703590
19125.000000	-126.234779
19148.437500	-125.635391
19171.875000	-124.620026
19195.312500	-124.079140
19218.750000	-124.544533
19242.187500	-124.966705
19265.625000	-125.219925
19289.062500	-125.761147
19312.500000	-125.571556
19335.937500	-125.757736
19359.375000	-125.789894
19382.812500	-124.660713
19406.250000	-125.407127
19429.687500	-126.353363
19453.125000	-125.559288
19476.562500	-125.272324
19500.000000	-125.074562
19523.437500	-125.686043
19546.875000	-126.708221
19570.312500	-127.145767
19593.750000	-127.084152
19617.187500	-126.682495
19640.625000	-127.073524
19664.062500	-127.353554
19687.500000	-127.295174
19710.937500	-127.230232
19734.375000	-127.332077
19757.812500	-127.492767
19781.250000	-127.546593
19804.687500	-127.304085
19828.125000	-127.003647
19851.562500	-126.999367
19875.000000	-127.515411
19898.437500	-127.877617
19921.875000	-127.970367
19945.312500	-128.064896
19968.750000	-128.058777
19992.187500	-127.840446
20015.625000	-127.809280
20039.062500	-127.752640
20062.500000	-127.623138
20085.937500	-127.560104
20109.375000	-127.375084
20132.812500	-126.819687
20156.250000	-127.221367
20179.687500	-127.362015
20203.125000	-127.263344
20226.562500	-127.272224
20250.000000	-127.372192
20273.437500	-127.594948
20296.875000	-127.825714
20320.312500	-127.903778
20343.750000	-127.815620
20367.187500	-127.743637
20390.625000	-127.253098
20414.062500	-127.275780
20437.500000	-127.613724
20460.937500	-127.824532
20484.375000	-127.861786
20507.812500	-127.974602
20531.250000	-128.283905
20554.687500	-128.335693
20578.125000	-127.996231
20601.562500	-128.132629
20625.000000	-128.150116
20648.437500	-127.923851
20671.875000	-127.799095
20695.312500	-127.716156
20718.750000	-127.664810
20742.187500	-127.568932
20765.625000	-127.465485
20789.062500	-127.788162
20812.500000	-128.031601
20835.937500	-127.909103
20859.375000	-128.022766
20882.812500	-128.097427
20906.250000	-128.262070
20929.687500	-128.376221
20953.125000	-128.414108
20976.562500	-128.216019
21000.000000	-127.957947
21023.437500	-128.088089
21046.875000	-128.046295
21070.312500	-128.147934
21093.750000	-128.118912
21117.187500	-128.149246
21140.625000	-128.021408
21164.062500	-127.798325
21187.500000	-127.958466
21210.937500	-128.047256
21234.375000	-128.052338
21257.812500	-128.051315
21281.250000	-127.834900
21304.687500	-127.823265
21328.125000	-128.141068
21351.562500	-128.059311
21375.000000	-127.987389
21398.437500	-127.825134
21421.875000	-127.878967
21445.312500	-128.020447
21468.750000	-128.068176
21492.187500	-128.126892
21515.625000	-128.353745
21539.062500	-128.270828
21562.500000	-128.209732
21585.937500	-128.426697
21609.375000	-128.515091
21632.812500	-128.549530
21656.250000	-128.509705
21679.687500	-128.104095
21703.125000	-127.996681
21726.562500	-128.439240
21750.000000	-128.672165
21773.437500	-128.572876
21796.875000	-128.518921
21820.312500	-128.511490
21843.750000	-128.520264
21867.187500	-128.535904
21890.625000	-128.566299
21914.062500	-128.515991
21937.500000	-128.487396
21960.937500	-128.437332
21984.375000	-128.454788
22007.812500	-128.413086
22031.250000	-128.229996
22054.687500	-128.225388
22078.125000	-128.345627
22101.562500	-128.506790
22125.000000	-128.512451
22148.437500	-128.479477
22171.875000	-128.448761
22195.312500	-128.287277
22218.750000	-128.205948
22242.187500	-128.243988
22265.625000	-128.229599
22289.062500	-128.310242
22312.500000	-128.329239
22335.937500	-128.587646
22359.375000	-128.490982
22382.812500	-128.488739
22406.250000	-128.549423
22429.687500	-128.598953
22453.125000	-128.645126
22476.562500	-128.604797
22500.000000	-128.528442
22523.437500	-128.537277
22546.875000	-128.529861
22570.312500	-128.503998
22593.750000	-128.527679
22617.187500	-128.489777
22640.625000	-128.487671
22664.062500	-128.520584
22687.500000	-128.565506
22710.937500	-128.596329
22734.375000	-128.608765
22757.812500	-128.484543
22781.250000	-128.510742
22804.687500	-128.585159
22828.125000	-128.600342
22851.562500	-128.641083
22875.000000	-128.599121
22898.437500	-128.569321
22921.875000	-128.519363
22945.312500	-128.488052
22968.750000	-128.519852
22992.187500	-128.499847
23015.625000	-128.602890
23039.062500	-128.628357
23062.500000	-128.629456
23085.937500	-128.681778
23109.375000	-128.600876
23132.812500	-128.557343
23156.250000	-128.569412
23179.687500	-128.654663
23203.125000	-128.639160
23226.562500	-128.731812
23250.000000	-128.742569
23273.437500	-128.692871
23296.875000	-128.675064
23320.312500	-128.685135
23343.750000	-128.666412
23367.187500	-128.609406
23390.625000	-128.430984
23414.062500	-128.530334
23437.500000	-128.497162
23460.937500	-128.536316
23484.375000	-128.574890
23507.812500	-128.529053
23531.250000	-128.494873
23554.687500	-128.487473
23578.125000	-128.521622
23601.562500	-128.461197
23625.000000	-128.215515
23648.437500	-128.270447
23671.875000	-128.484650
23695.312500	-128.677231
23718.750000	-128.784515
23742.187500	-128.874207
23765.625000	-128.799576
23789.062500	-128.616760
23812.500000	-128.518707
23835.937500	-128.674072
23859.375000	-128.604675
23882.812500	-128.586380
23906.250000	-128.573792
23929.687500	-128.779800
23953.125000	-128.787689
23976.562500	-128.662201
24000.000000	-128.675888
24023.437500	-128.682632
24046.875000	-128.661041
24070.312500	-128.768860
24093.750000	-128.735992
24117.187500	-128.713562
24140.625000	-128.721634
24164.062500	-128.814850
24187.500000	-128.903656
24210.937500	-128.844757
24234.375000	-128.735931
24257.812500	-128.704376
24281.250000	-128.669815
24304.687500	-128.585968
24328.125000	-128.580261
24351.562500	-128.487366
24375.000000	-128.591507
24398.437500	-128.674255
24421.875000	-128.654724
24445.312500	-128.676239
24468.750000	-128.652328
24492.187500	-128.722977
24515.625000	-128.773804
24539.062500	-128.705750
24562.500000	-128.682861
24585.937500	-128.726517
24609.375000	-128.621521
24632.812500	-128.529007
24656.250000	-128.568436
24679.687500	-128.646759
24703.125000	-128.589417
24726.562500	-128.661942
24750.000000	-128.611389
24773.437500	-128.592056
24796.875000	-128.621185
24820.312500	-128.657028
24843.750000	-128.594315
24867.187500	-128.530823
24890.625000	-128.612091
24914.062500	-128.516571
24937.500000	-128.483307
24960.937500	-128.519531
24984.375000	-128.466751
25007.812500	-128.421310
25031.250000	-128.462051
25054.687500	-128.573395
25078.125000	-128.612854
25101.562500	-128.585800
25125.000000	-128.767990
25148.437500	-128.787140
25171.875000	-128.815292
25195.312500	-128.783829
25218.750000	-128.780746
25242.187500	-128.788513
25265.625000	-128.857880
25289.062500	-128.778595
25312.500000	-128.740982
25335.937500	-128.794876
25359.375000	-128.754318
25382.812500	-128.736282
25406.250000	-128.822845
25429.687500	-128.831161
25453.125000	-128.836853
25476.562500	-128.829544
25500.000000	-128.801483
25523.437500	-128.871277
25546.875000	-128.763336
25570.312500	-128.796036
25593.750000	-128.864197
25617.187500	-128.748062
25640.625000	-128.844666
25664.062500	-128.824829
25687.500000	-128.830032
25710.937500	-128.705063
25734.375000	-128.555191
25757.812500	-128.662155
25781.250000	-128.696182
25804.687500	-128.661926
25828.125000	-128.705017
25851.562500	-128.782440
25875.000000	-128.717255
25898.437500	-128.790283
25921.875000	-128.758331
25945.312500	-128.704498
25968.750000	-128.722717
25992.187500	-128.787247
26015.625000	-128.732056
26039.062500	-128.717239
26062.500000	-128.749344
26085.937500	-128.716446
26109.375000	-128.754822
26132.812500	-128.672119
26156.250000	-128.634384
26179.687500	-128.693344
26203.125000	-128.703445
26226.562500	-128.623123
26250.000000	-128.646286
26273.437500	-128.688202
26296.875000	-128.698715
26320.312500	-128.690918
26343.750000	-128.614365
26367.187500	-128.573639
26390.625000	-128.761887
26414.062500	-128.681885
26437.500000	-128.568100
26460.937500	-128.592514
26484.375000	-128.556381
26507.812500	-128.562469
26531.250000	-128.508423
26554.687500	-128.586472
26578.125000	-128.661148
26601.562500	-128.735458
26625.000000	-128.742386
26648.437500	-128.745438
26671.875000	-128.718170
26695.312500	-128.626297
26718.750000	-128.761993
26742.187500	-128.773956
26765.625000	-128.752853
26789.062500	-128.764725
26812.500000	-128.612045
26835.937500	-128.460342
26859.375000	-128.520752
26882.812500	-128.703659
26906.250000	-128.751953
26929.687500	-128.776001
26953.125000	-128.768738
26976.562500	-128.757538
27000.000000	-128.580795
27023.437500	-128.546356
27046.875000	-128.639755
27070.312500	-128.726578
27093.750000	-128.732590
27117.187500	-128.767853
27140.625000	-128.705322
27164.062500	-128.666656
27187.500000	-128.631989
27210.937500	-128.622818
27234.375000	-128.724060
27257.812500	-128.692169
27281.250000	-128.721741
27304.687500	-128.799072
27328.125000	-128.742508
27351.562500	-128.781830
27375.000000	-128.786102
27398.437500	-128.789413
27421.875000	-128.799698
27445.312500	-128.772461
27468.750000	-128.817535
27492.187500	-128.799637
27515.625000	-128.775513
27539.062500	-128.795273
27562.500000	-128.732727
27585.937500	-128.704697
27609.375000	-128.708054
27632.812500	-128.765152
27656.250000	-128.773453
27679.687500	-128.738907
27703.125000	-128.777832
27726.562500	-128.806931
27750.000000	-128.782516
27773.437500	-128.817596
27796.875000	-128.786728
27820.312500	-128.733658
27843.750000	-128.772110
27867.187500	-128.707947
27890.625000	-128.677002
27914.062500	-128.671036
27937.500000	-128.683487
27960.937500	-128.669510
27984.375000	-128.762589
28007.812500	-128.773972
28031.250000	-128.698898
28054.687500	-128.723343
28078.125000	-128.712326
28101.562500	-128.793701
28125.000000	-128.797348
28148.437500	-128.815811
28171.875000	-128.792984
28195.312500	-128.669388
28218.750000	-128.739685
28242.187500	-128.809723
28265.625000	-128.818024
28289.062500	-128.752090
28312.500000	-128.739639
28335.937500	-128.873138
28359.375000	-128.774506
28382.812500	-128.861526
28406.250000	-128.880310
28429.687500	-128.806580
28453.125000	-128.829025
28476.562500	-128.769348
28500.000000	-128.806824
28523.437500	-128.812866
28546.875000	-128.818726
28570.312500	-128.846466
28593.750000	-128.789719
28617.187500	-128.861465
28640.625000	-128.851562
28664.062500	-128.883209
28687.500000	-128.797562
28710.937500	-128.795883
28734.375000	-128.872864
28757.812500	-128.781128
28781.250000	-128.862778
28804.687500	-128.883621
28828.125000	-128.951019
28851.562500	-128.839996
28875.000000	-128.865295
28898.437500	-128.917801
28921.875000	-128.798721
28945.312500	-128.744156
28968.750000	-128.702301
28992.187500	-128.843750
29015.625000	-128.920013
29039.062500	-128.902664
29062.500000	-128.906418
29085.937500	-128.894196
29109.375000	-128.858093
29132.812500	-128.815079
29156.250000	-128.810394
29179.687500	-128.876099
29203.125000	-128.756607
29226.562500	-128.734543
29250.000000	-128.864838
29273.437500	-128.806961
29296.875000	-128.865952
29320.312500	-128.791306
29343.750000	-128.791626
29367.187500	-128.769440
29390.625000	-128.725632
29414.062500	-128.738617
29437.500000	-128.721176
29460.937500	-128.679764
29484.375000	-128.579269
29507.812500	-128.612167
29531.250000	-128.722046
29554.687500	-128.777985
29578.125000	-128.750870
29601.562500	-128.716202
29625.000000	-128.683609
29648.437500	-128.712006
29671.875000	-128.801926
29695.312500	-128.766983
29718.750000	-128.706604
29742.187500	-128.742813
29765.625000	-128.628540
29789.062500	-128.613892
29812.500000	-128.661194
29835.937500	-128.659653
29859.375000	-128.772842
29882.812500	-128.835281
29906.250000	-128.795746
29929.687500	-128.772064
29953.125000	-128.669174
29976.562500	-128.718491
30000.000000	-128.730698
30023.437500	-128.766891
30046.875000	-128.836105
30070.312500	-128.816025
30093.750000	-128.781830
30117.187500	-128.847641
30140.625000	-128.786804
30164.062500	-128.780991
30187.500000	-128.841171
30210.937500	-128.861588
30234.375000	-128.823090
30257.812500	-128.858414
30281.250000	-128.917084
30304.687500	-128.878510
30328.125000	-128.880981
30351.562500	-128.775604
30375.000000	-128.777802
30398.437500	-128.843796
30421.875000	-128.884262
30445.312500	-128.808151
30468.750000	-128.811554
30492.187500	-128.858536
30515.625000	-128.809097
30539.062500	-128.818726
30562.500000	-128.773956
30585.937500	-128.723129
30609.375000	-128.829376
30632.812500	-128.923965
30656.250000	-128.906586
30679.687500	-128.884262
30703.125000	-128.776306
30726.562500	-128.743164
30750.000000	-128.740234
30773.437500	-128.889008
30796.875000	-128.879761
30820.312500	-128.805222
30843.750000	-128.784103
30867.187500	-128.767136
30890.625000	-128.722198
30914.062500	-128.775375
30937.500000	-128.840408
30960.937500	-128.850037
30984.375000	-128.861450
31007.812500	-128.845306
31031.250000	-128.825378
31054.687500	-128.840927
31078.125000	-128.831818
31101.562500	-128.744125
31125.000000	-128.747345
31148.437500	-128.780563
31171.875000	-128.737396
31195.312500	-128.736069
31218.750000	-128.790878
31242.187500	-128.825897
31265.625000	-128.881851
31289.062500	-128.759186
31312.500000	-128.689865
31335.937500	-128.733078
31359.375000	-128.694565
31382.812500	-128.767014
31406.250000	-128.638687
31429.687500	-128.672546
31453.125000	-128.664261
31476.562500	-128.661346
31500.000000	-128.708832
31523.437500	-128.702576
31546.875000	-128.604477
31570.312500	-128.676758
31593.750000	-128.671097
31617.187500	-128.699997
31640.625000	-128.763306
31664.062500	-128.772614
31687.500000	-128.766052
31710.937500	-128.810791
31734.375000	-128.811295
31757.812500	-128.866791
31781.250000	-128.913116
31804.687500	-128.899445
31828.125000	-128.827255
31851.562500	-128.779709
31875.000000	-128.873642
31898.437500	-128.842117
31921.875000	-128.881912
31945.312500	-128.828384
31968.750000	-128.785522
31992.187500	-128.809296
32015.625000	-128.809280
32039.062500	-128.701813
32062.500000	-128.768661
32085.937500	-128.798264
32109.375000	-128.854538
32132.812500	-128.853302
32156.250000	-128.875763
32179.687500	-128.800476
32203.125000	-128.736084
32226.562500	-128.799438
32250.000000	-128.885239
32273.437500	-128.859329
32296.875000	-128.859329
32320.312500	-128.873703
32343.750000	-128.866287
32367.187500	-128.861725
32390.625000	-128.757172
32414.062500	-128.776794
32437.500000	-128.880997
32460.937500	-128.924728
32484.375000	-128.806747
32507.812500	-128.815552
32531.250000	-128.803040
32554.687500	-128.805725
32578.125000	-128.814453
32601.562500	-128.781799
32625.000000	-128.700302
32648.437500	-128.724319
32671.875000	-128.754929
32695.312500	-128.709076
32718.750000	-128.762329
32742.187500	-128.774719
32765.625000	-128.838760
32789.062500	-128.884933
32812.500000	-128.804901
32835.937500	-128.789505
32859.375000	-128.817261
32882.812500	-128.824310
32906.250000	-128.750214
32929.687500	-128.761108
32953.125000	-128.765671
32976.562500	-128.775711
33000.000000	-128.692673
33023.437500	-128.694641
33046.875000	-128.794662
33070.312500	-128.736679
33093.750000	-128.783142
33117.187500	-128.749588
33140.625000	-128.689072
33164.062500	-128.799973
33187.500000	-128.785019
33210.937500	-128.782928
33234.375000	-128.752365
33257.812500	-128.804672
33281.250000	-128.832413
33304.687500	-128.814529
33328.125000	-128.867371
33351.562500	-128.811996
33375.000000	-128.748642
33398.437500	-128.674164
33421.875000	-128.696976
33445.312500	-128.718338
33468.750000	-128.725067
33492.187500	-128.735153
33515.625000	-128.831223
33539.062500	-128.837082
33562.500000	-128.799454
33585.937500	-128.713440
33609.375000	-128.813934
33632.812500	-128.813919
33656.250000	-128.778046
33679.687500	-128.840378
33703.125000	-128.820557
33726.562500	-128.800034
33750.000000	-128.846909
33773.437500	-128.748306
33796.875000	-128.675598
33820.312500	-128.769058
33843.750000	-128.829926
33867.187500	-128.804886
33890.625000	-128.825912
33914.062500	-128.785461
33937.500000	-128.770309
33960.937500	-128.792236
33984.375000	-128.853806
34007.812500	-128.745575
34031.250000	-128.806671
34054.687500	-128.846527
34078.125000	-128.892624
34101.562500	-128.848984
34125.000000	-128.868759
34148.437500	-128.780075
34171.875000	-128.821121
34195.312500	-128.813049
34218.750000	-128.787933
34242.187500	-128.826462
34265.625000	-128.802780
34289.062500	-128.821121
34312.500000	-128.797791
34335.937500	-128.624939
34359.375000	-128.674866
34382.812500	-128.733826
34406.250000	-128.756805
34429.687500	-128.798767
34453.125000	-128.844757
34476.562500	-128.903183
34500.000000	-128.786560
34523.437500	-128.797928
34546.875000	-128.797882
34570.312500	-128.781448
34593.750000	-128.855927
34617.187500	-128.817963
34640.625000	-128.747696
34664.062500	-128.791290
34687.500000	-128.742279
34710.937500	-128.793579
34734.375000	-128.680161
34757.812500	-128.775589
34781.250000	-128.761917
34804.687500	-128.577591
34828.125000	-128.734619
34851.562500	-128.876831
34875.000000	-128.871094
34898.437500	-128.784592
34921.875000	-128.757767
34945.312500	-128.840042
34968.750000	-128.748856
34992.187500	-128.710938
35015.625000	-128.797668
35039.062500	-128.721512
35062.500000	-128.752228
35085.937500	-128.778809
35109.375000	-128.780823
35132.812500	-128.798630
35156.250000	-128.779480
35179.687500	-128.760895
35203.125000	-128.705643
35226.562500	-128.734482
35250.000000	-128.702438
35273.437500	-128.728928
35296.875000	-128.666199
35320.312500	-128.641449
35343.750000	-128.751465
35367.187500	-128.664566
35390.625000	-128.640793
35414.062500	-128.648346
35437.500000	-128.649658
35460.937500	-128.694397
35484.375000	-128.696609
35507.812500	-128.615189
35531.250000	-128.582352
35554.687500	-128.612000
35578.125000	-128.652710
35601.562500	-128.755478
35625.000000	-128.730133
35648.437500	-128.700424
35671.875000	-128.790298
35695.312500	-128.759842
35718.750000	-128.725082
35742.187500	-128.744751
35765.625000	-128.783066
35789.062500	-128.774734
35812.500000	-128.840576
35835.937500	-128.820786
35859.375000	-128.784546
35882.812500	-128.782349
35906.250000	-128.743576
35929.687500	-128.716400
35953.125000	-128.725128
35976.562500	-128.648026
36000.000000	-128.598953
36023.437500	-128.663071
36046.875000	-128.764252
36070.312500	-128.748672
36093.750000	-128.816986
36117.187500	-128.797653
36140.625000	-128.669724
36164.062500	-128.711029
36187.500000	-128.804489
36210.937500	-128.778137
36234.375000	-128.773773
36257.812500	-128.755722
36281.250000	-128.716492
36304.687500	-128.773911
36328.125000	-128.729996
36351.562500	-128.703079
36375.000000	-128.803452
36398.437500	-128.780090
36421.875000	-128.723602
36445.312500	-128.737961
36468.750000	-128.789062
36492.187500	-128.730515
36515.625000	-128.737808
36539.062500	-128.800217
36562.500000	-128.774017
36585.937500	-128.816528
36609.375000	-128.799255
36632.812500	-128.726929
36656.250000	-128.683258
36679.687500	-128.591949
36703.125000	-128.619705
36726.562500	-128.666779
36750.000000	-128.658234
36773.437500	-128.715286
36796.875000	-128.637421
36820.312500	-128.702423
36843.750000	-128.794739
36867.187500	-128.819992
36890.625000	-128.815155
36914.062500	-128.701279
36937.500000	-128.744690
36960.937500	-128.797958
36984.375000	-128.741867
37007.812500	-128.692215
37031.250000	-128.742538
37054.687500	-128.687134
37078.125000	-128.680145
37101.562500	-128.680939
37125.000000	-128.693558
37148.437500	-128.637436
37171.875000	-128.719254
37195.312500	-128.729492
37218.750000	-128.686417
37242.187500	-128.689529
37265.625000	-128.736832
37289.062500	-128.643616
37312.500000	-128.615585
37335.937500	-128.625824
37359.375000	-128.693146
37382.812500	-128.722809
37406.250000	-128.636017
37429.687500	-128.673386
37453.125000	-128.689148
37476.562500	-128.647598
37500.000000	-128.719955
37523.437500	-128.642929
37546.875000	-128.610352
37570.312500	-128.645370
37593.750000	-128.687210
37617.187500	-128.640671
37640.625000	-128.549255
37664.062500	-128.683395
37687.500000	-128.750214
37710.937500	-128.694489
37734.375000	-128.670441
37757.812500	-128.655121
37781.250000	-128.644638
37804.687500	-128.665115
37828.125000	-128.736008
37851.562500	-128.727020
37875.000000	-128.668564
37898.437500	-128.653183
37921.875000	-128.669449
37945.312500	-128.694595
37968.750000	-128.638260
37992.187500	-128.649780
38015.625000	-128.629822
38039.062500	-128.624252
38062.500000	-128.647736
38085.937500	-128.684464
38109.375000	-128.596939
38132.812500	-128.614624
38156.250000	-128.555603
38179.687500	-128.637558
38203.125000	-128.534302
38226.562500	-128.398148
38250.000000	-128.315125
38273.437500	-128.227631
38296.875000	-127.976616
38320.312500	-127.864944
38343.750000	-128.098557
38367.187500	-128.357376
38390.625000	-128.167206
38414.062500	-128.038925
38437.500000	-128.125275
38460.937500	-128.187820
38484.375000	-128.222855
38507.812500	-128.213654
38531.250000	-128.268799
38554.687500	-128.330902
38578.125000	-128.366684
38601.562500	-128.466492
38625.000000	-128.444992
38648.437500	-128.366806
38671.875000	-128.408005
38695.312500	-128.473480
38718.750000	-128.452652
38742.187500	-128.415100
38765.625000	-128.478653
38789.062500	-128.541855
38812.500000	-128.542603
38835.937500	-128.541916
38859.375000	-128.557831
38882.812500	-128.566101
38906.250000	-128.529068
38929.687500	-128.618561
38953.125000	-128.675385
38976.562500	-128.643784
39000.000000	-128.510406
39023.437500	-128.507660
39046.875000	-128.513596
39070.312500	-128.607635
39093.750000	-128.624741
39117.187500	-128.662094
39140.625000	-128.579941
39164.062500	-128.587845
39187.500000	-128.690689
39210.937500	-128.628052
39234.375000	-128.670273
39257.812500	-128.698975
39281.250000	-128.604584
39304.687500	-128.526108
39328.125000	-128.543457
39351.562500	-128.571548
39375.000000	-128.526154
39398.437500	-128.598022
39421.875000	-128.657471
39445.312500	-128.694168
39468.750000	-128.715210
39492.187500	-128.631622
39515.625000	-128.647980
39539.062500	-128.626038
39562.500000	-128.659653
39585.937500	-128.591125
39609.375000	-128.559525
39632.812500	-128.530319
39656.250000	-128.549973
39679.687500	-128.495544
39703.125000	-128.620499
39726.562500	-128.637985
39750.000000	-128.612350
39773.437500	-128.642075
39796.875000	-128.585327
39820.312500	-128.606842
39843.750000	-128.596329
39867.187500	-128.624405
39890.625000	-128.551025
39914.062500	-128.609848
39937.500000	-128.581085
39960.937500	-128.601883
39984.375000	-128.580353
40007.812500	-128.600952
40031.250000	-128.613190
40054.687500	-128.631729
40078.125000	-128.622360
40101.562500	-128.639923
40125.000000	-128.637268
40148.437500	-128.645615
40171.875000	-128.605682
40195.312500	-128.633102
40218.750000	-128.646454
40242.187500	-128.614944
40265.625000	-128.330597
40289.062500	-128.560745
40312.500000	-128.679092
40335.937500	-128.597565
40359.375000	-128.595215
40382.812500	-128.582169
40406.250000	-128.607559
40429.687500	-128.622803
40453.125000	-128.550278
40476.562500	-128.528229
40500.000000	-128.449188
40523.437500	-128.520172
40546.875000	-128.660660
40570.312500	-128.681580
40593.750000	-128.671921
40617.187500	-128.656479
40640.625000	-128.727859
40664.062500	-128.677017
40687.500000	-128.573578
40710.937500	-128.592255
40734.375000	-128.656448
40757.812500	-128.649292
40781.250000	-128.644592
40804.687500	-128.583878
40828.125000	-128.611221
40851.562500	-128.626297
40875.000000	-128.643341
40898.437500	-128.650101
40921.875000	-128.580963
40945.312500	-128.500519
40968.750000	-128.623505
40992.187500	-128.724365
41015.625000	-128.672531
41039.062500	-128.599091
41062.500000	-128.583344
41085.937500	-128.656693
41109.375000	-128.601074
41132.812500	-128.584030
41156.250000	-128.720505
41179.687500	-128.743958
41203.125000	-128.697235
41226.562500	-128.728668
41250.000000	-128.753815
41273.437500	-128.687531
41296.875000	-128.632065
41320.312500	-128.671478
41343.750000	-128.651138
41367.187500	-128.582764
41390.625000	-128.654083
41414.062500	-128.676346
41437.500000	-128.750885
41460.937500	-128.687378
41484.375000	-128.636215
41507.812500	-128.658905
41531.250000	-128.609650
41554.687500	-128.593979
41578.125000	-128.627243
41601.562500	-128.689087
41625.000000	-128.778412
41648.437500	-128.766861
41671.875000	-128.718643
41695.312500	-128.712952
41718.750000	-128.713531
41742.187500	-128.779083
41765.625000	-128.760513
41789.062500	-128.689697
41812.500000	-128.747543
41835.937500	-128.728348
41859.375000	-128.739792
41882.812500	-128.745163
41906.250000	-128.783218
41929.687500	-128.686829
41953.125000	-128.695755
41976.562500	-128.716141
42000.000000	-128.637802
42023.437500	-128.709686
42046.875000	-128.784698
42070.312500	-128.810883
42093.750000	-128.757065
42117.187500	-128.720062
42140.625000	-128.748154
42164.062500	-128.798187
42187.500000	-128.788025
42210.937500	-128.726501
42234.375000	-128.713074
42257.812500	-128.760742
42281.250000	-128.766098
42304.687500	-128.772781
42328.125000	-128.872986
42351.562500	-128.812653
42375.000000	-128.742783
42398.437500	-128.815964
42421.875000	-128.896011
42445.312500	-128.864014
42468.750000	-128.894775
42492.187500	-128.896255
42515.625000	-128.798050
42539.062500	-128.851120
42562.500000	-128.857681
42585.937500	-128.872711
42609.375000	-128.916199
42632.812500	-128.883499
42656.250000	-128.868866
42679.687500	-128.888992
42703.125000	-128.899887
42726.562500	-128.887421
42750.000000	-128.889603
42773.437500	-128.907303
42796.875000	-128.925262
42820.312500	-128.890854
42843.750000	-128.864090
42867.187500	-128.861267
42890.625000	-128.929703
42914.062500	-128.979538
42937.500000	-129.010605
42960.937500	-128.943634
42984.375000	-128.952774
43007.812500	-129.012146
43031.250000	-128.959656
43054.687500	-128.915833
43078.125000	-128.959564
43101.562500	-128.950165
43125.000000	-128.996613
43148.437500	-129.008530
43171.875000	-128.985947
43195.312500	-129.035583
43218.750000	-129.098007
43242.187500	-129.073074
43265.625000	-129.012589
43289.062500	-129.024765
43312.500000	-129.032852
43335.937500	-129.064011
43359.375000	-129.033066
43382.812500	-129.016861
43406.250000	-129.062119
43429.687500	-129.137924
43453.125000	-129.249954
43476.562500	-129.325363
43500.000000	-129.057251
43523.437500	-129.083298
43546.875000	-129.197922
43570.312500	-129.210419
43593.750000	-129.211823
43617.187500	-129.211960
43640.625000	-129.258408
43664.062500	-129.299561
43687.500000	-129.189041
43710.937500	-129.225510
43734.375000	-129.328888
43757.812500	-129.265091
43781.250000	-129.238525
43804.687500	-129.339920
43828.125000	-129.280823
43851.562500	-129.277344
43875.000000	-129.276093
43898.437500	-129.359085
43921.875000	-129.357529
43945.312500	-129.322906
43968.750000	-129.380829
43992.187500	-129.370056
44015.625000	-129.321533
44039.062500	-129.320251
44062.500000	-129.378174
44085.937500	-129.384537
44109.375000	-129.418457
44132.812500	-129.366730
44156.250000	-129.332352
44179.687500	-129.250656
44203.125000	-129.363602
44226.562500	-129.480637
44250.000000	-129.385864
44273.437500	-129.439606
44296.875000	-129.494171
44320.312500	-129.448914
44343.750000	-129.521576
44367.187500	-129.471420
44390.625000	-129.501495
44414.062500	-129.514664
44437.500000	-129.499573
44460.937500	-129.487350
44484.375000	-129.510757
44507.812500	-129.561386
44531.250000	-129.636185
44554.687500	-129.604538
44578.125000	-129.589386
44601.562500	-129.503052
44625.000000	-129.549225
44648.437500	-129.620667
44671.875000	-129.519653
44695.312500	-129.559677
44718.750000	-129.704956
44742.187500	-129.740845
44765.625000	-129.713242
44789.062500	-129.665329
44812.500000	-129.692780
44835.937500	-129.780060
44859.375000	-129.707626
44882.812500	-129.744049
44906.250000	-129.751831
44929.687500	-129.795013
44953.125000	-129.853104
44976.562500	-129.823669
45000.000000	-129.785568
45023.437500	-129.746994
45046.875000	-129.746689
45070.312500	-129.841812
45093.750000	-129.929688
45117.187500	-129.899628
45140.625000	-129.915375
45164.062500	-129.828506
45187.500000	-129.901810
45210.937500	-129.966309
45234.375000	-130.036087
45257.812500	-129.973785
45281.250000	-129.937286
45304.687500	-129.942642
45328.125000	-129.912308
45351.562500	-129.966476
45375.000000	-130.063858
45398.437500	-130.173645
45421.875000	-130.074966
45445.312500	-130.011505
45468.750000	-130.038361
45492.187500	-130.007645
45515.625000	-130.078201
45539.062500	-130.040451
45562.500000	-130.041382
45585.937500	-130.109344
45609.375000	-130.088913
45632.812500	-129.939011
45656.250000	-130.101212
45679.687500	-130.277100
45703.125000	-130.268219
45726.562500	-130.249069
45750.000000	-130.274780
45773.437500	-130.247757
45796.875000	-130.267685
45820.312500	-130.248260
45843.750000	-130.316879
45867.187500	-130.405045
45890.625000	-130.286499
45914.062500	-130.206894
45937.500000	-130.373932
45960.937500	-130.428070
45984.375000	-130.342636
46007.812500	-130.387939
46031.250000	-130.408981
46054.687500	-130.426376
46078.125000	-130.382309
46101.562500	-130.546280
46125.000000	-130.586304
46148.437500	-130.515274
46171.875000	-130.479675
46195.312500	-130.520554
46218.750000	-130.536377
46242.187500	-130.516251
46265.625000	-130.535049
46289.062500	-130.562714
46312.500000	-130.586212
46335.937500	-130.573090
46359.375000	-130.640167
46382.812500	-130.581451
46406.250000	-130.570450
46429.687500	-130.609222
46453.125000	-130.678268
46476.562500	-130.554123
46500.000000	-130.500031
46523.437500	-130.682739
46546.875000	-130.778198
46570.312500	-130.732941
46593.750000	-130.694733
46617.187500	-130.761765
46640.625000	-130.790497
46664.062500	-130.797821
46687.500000	-130.756958
46710.937500	-130.794540
46734.375000	-130.792252
46757.812500	-130.821564
46781.250000	-130.824738
46804.687500	-130.791611
46828.125000	-130.756882
46851.562500	-130.830338
46875.000000	-130.775452
46898.437500	-130.838730
46921.875000	-130.841431
46945.312500	-130.884171
46968.750000	-130.855438
46992.187500	-130.835129
47015.625000	-130.821808
47039.062500	-130.914307
47062.500000	-130.980515
47085.937500	-130.934875
47109.375000	-130.954971
47132.812500	-130.981415
47156.250000	-131.023300
47179.687500	-131.003128
47203.125000	-131.014648
47226.562500	-131.114914
47250.000000	-131.102814
47273.437500	-130.972656
47296.875000	-130.941620
47320.312500	-130.977386
47343.750000	-130.875000
47367.187500	-130.965820
47390.625000	-131.012177
47414.062500	-131.016937
47437.500000	-130.947968
47460.937500	-130.960342
47484.375000	-131.049042
47507.812500	-131.038010
47531.250000	-130.943619
47554.687500	-131.019485
47578.125000	-131.134399
47601.562500	-131.087631
47625.000000	-131.101471
47648.437500	-131.120682
47671.875000	-131.163315
47695.312500	-131.117188
47718.750000	-131.053589
47742.187500	-131.079254
47765.625000	-131.001663
47789.062500	-131.028458
47812.500000	-131.057983
47835.937500	-131.098190
47859.375000	-131.096863
47882.812500	-131.134491
47906.250000	-131.116577
47929.687500	-131.155762
47953.125000	-131.124634
47976.562500	-131.144516
