주파수 (Hz)	레벨 (dB)
23.437500	-97.649300
46.875000	-83.165359
70.312500	-69.602608
93.750000	-62.923901
117.187500	-60.253906
140.625000	-58.285831
164.062500	-58.062706
187.500000	-58.744652
210.937500	-58.163376
234.375000	-57.053627
257.812500	-61.487301
281.250000	-62.809868
304.687500	-61.707001
328.125000	-63.720905
351.562500	-59.963539
375.000000	-57.408745
398.437500	-59.439507
421.875000	-61.639606
445.312500	-58.644665
468.750000	-58.342815
492.187500	-63.428299
515.625000	-64.622765
539.062500	-64.679626
562.500000	-60.745167
585.937500	-53.340019
609.375000	-56.053135
632.812500	-61.680740
656.250000	-68.486488
679.687500	-64.163696
703.125000	-60.204781
726.562500	-63.142704
750.000000	-64.321167
773.437500	-65.571869
796.875000	-65.547020
820.312500	-69.953979
843.750000	-75.532745
867.187500	-73.714684
890.625000	-71.845016
914.062500	-74.287849
937.500000	-71.455162
960.937500	-76.139565
984.375000	-75.181175
1007.812500	-78.791588
1031.250000	-78.300964
1054.687500	-75.419212
1078.125000	-79.123711
1101.562500	-76.919632
1125.000000	-79.055275
1148.437500	-84.053345
1171.875000	-74.577911
1195.312500	-75.159798
1218.750000	-82.770668
1242.187500	-77.698769
1265.625000	-78.608818
1289.062500	-84.288528
1312.500000	-82.342850
1335.937500	-83.047432
1359.375000	-85.167450
1382.812500	-76.362518
1406.250000	-73.165367
1429.687500	-78.556824
1453.125000	-87.719490
1476.562500	-82.430954
1500.000000	-81.577820
1523.437500	-86.690536
1546.875000	-77.722153
1570.312500	-67.996658
1593.750000	-68.619652
1617.187500	-80.687790
1640.625000	-85.874893
1664.062500	-84.111641
1687.500000	-84.262444
1710.937500	-90.142212
1734.375000	-89.656502
1757.812500	-80.526833
1781.250000	-76.806946
1804.687500	-83.876747
1828.125000	-93.493324
1851.562500	-82.153862
1875.000000	-74.923790
1898.437500	-78.318626
1921.875000	-91.370705
1945.312500	-94.113243
1968.750000	-90.280571
1992.187500	-89.047653
2015.625000	-94.908043
2039.062500	-99.930893
2062.500000	-97.571251
2085.937500	-91.313431
2109.375000	-84.687950
2132.812500	-86.836342
2156.250000	-98.038086
2179.687500	-99.240845
2203.125000	-94.085068
2226.562500	-88.473228
2250.000000	-88.978554
2273.437500	-96.776085
2296.875000	-101.797867
2320.312500	-98.507256
2343.750000	-90.751602
2367.187500	-83.063812
2390.625000	-83.398323
2414.062500	-92.615395
2437.500000	-99.383911
2460.937500	-100.842957
2484.375000	-94.566826
2507.812500	-83.379517
2531.250000	-82.521820
2554.687500	-92.610237
2578.125000	-101.600243
2601.562500	-104.492371
2625.000000	-103.121056
2648.437500	-96.351013
2671.875000	-90.616539
2695.312500	-93.896950
2718.750000	-105.824486
2742.187500	-105.257118
2765.625000	-99.461548
2789.062500	-93.980766
2812.500000	-89.367393
2835.937500	-87.057472
2859.375000	-93.860329
2882.812500	-104.912117
2906.250000	-106.365601
2929.687500	-106.592667
2953.125000	-100.883278
2976.562500	-92.345734
3000.000000	-87.997330
3023.437500	-91.547676
3046.875000	-102.009834
3070.312500	-104.541252
3093.750000	-102.738945
3117.187500	-100.784096
3140.625000	-94.911697
3164.062500	-83.849495
3187.500000	-79.605499
3210.937500	-84.646744
3234.375000	-97.840874
3257.812500	-105.787575
3281.250000	-110.085022
3304.687500	-110.524147
3328.125000	-106.027840
3351.562500	-107.559967
3375.000000	-110.694412
3398.437500	-107.096901
3421.875000	-110.483284
3445.312500	-115.539680
3468.750000	-114.035515
3492.187500	-112.256996
3515.625000	-109.995758
3539.062500	-97.877861
3562.500000	-91.782959
3585.937500	-94.221809
3609.375000	-93.676071
3632.812500	-99.276604
3656.250000	-110.040184
3679.687500	-111.236671
3703.125000	-110.342186
3726.562500	-111.988968
3750.000000	-104.835152
3773.437500	-96.306664
3796.875000	-95.870163
3820.312500	-96.540886
3843.750000	-100.441635
3867.187500	-110.556770
3890.625000	-115.110924
3914.062500	-114.662239
3937.500000	-114.717796
3960.937500	-114.765144
3984.375000	-103.373100
4007.812500	-99.736755
4031.250000	-105.332962
4054.687500	-114.820045
4078.125000	-114.525620
4101.562500	-116.619186
4125.000000	-118.212219
4148.437500	-117.096382
4171.875000	-115.934586
4195.312500	-114.536232
4218.750000	-110.547104
4242.187500	-109.180199
4265.625000	-113.257820
4289.062500	-109.545815
4312.500000	-107.518890
4335.937500	-108.715179
4359.375000	-112.579453
4382.812500	-116.350510
4406.250000	-117.208755
4429.687500	-115.721283
4453.125000	-113.427917
4476.562500	-106.492424
4500.000000	-102.168457
4523.437500	-103.609024
4546.875000	-104.504524
4570.312500	-99.722328
4593.750000	-103.011856
4617.187500	-112.759178
4640.625000	-116.706337
4664.062500	-117.765511
4687.500000	-119.302254
4710.937500	-119.026199
4734.375000	-117.788376
4757.812500	-114.507210
4781.250000	-106.146049
4804.687500	-103.118736
4828.125000	-95.056114
4851.562500	-91.183784
4875.000000	-95.590508
4898.437500	-104.990440
4921.875000	-114.351395
4945.312500	-116.257149
4968.750000	-117.727562
4992.187500	-117.375534
5015.625000	-118.207298
5039.062500	-108.490479
5062.500000	-101.991783
5085.937500	-104.720200
5109.375000	-115.630661
5132.812500	-116.565857
5156.250000	-107.907532
5179.687500	-106.056953
5203.125000	-113.398415
5226.562500	-118.975014
5250.000000	-118.503342
5273.437500	-117.800606
5296.875000	-118.569138
5320.312500	-119.383492
5343.750000	-120.297142
5367.187500	-115.795250
5390.625000	-108.188416
5414.062500	-108.402382
5437.500000	-113.460426
5460.937500	-112.373466
5484.375000	-112.384445
5507.812500	-117.114197
5531.250000	-116.196442
5554.687500	-111.471664
5578.125000	-114.861702
5601.562500	-120.739487
5625.000000	-119.354233
5648.437500	-118.343544
5671.875000	-116.885887
5695.312500	-106.311630
5718.750000	-102.123421
5742.187500	-103.460533
5765.625000	-109.218086
5789.062500	-113.036133
5812.500000	-108.783340
5835.937500	-110.350418
5859.375000	-115.215843
5882.812500	-118.188408
5906.250000	-118.259132
5929.687500	-121.018227
5953.125000	-123.828697
5976.562500	-124.576645
6000.000000	-124.094978
6023.437500	-124.687561
6046.875000	-124.881203
6070.312500	-124.409019
6093.750000	-124.675461
6117.187500	-124.396690
6140.625000	-123.679482
6164.062500	-123.705566
6187.500000	-122.165855
6210.937500	-114.411171
6234.375000	-111.379784
6257.812500	-117.315392
6281.250000	-124.059067
6304.687500	-124.522644
6328.125000	-125.268372
6351.562500	-124.897385
6375.000000	-123.821716
6398.437500	-123.953896
6421.875000	-124.483711
6445.312500	-121.004097
6468.750000	-119.216408
6492.187500	-117.970207
6515.625000	-117.555023
6539.062500	-118.667809
6562.500000	-117.248947
6585.937500	-109.562889
6609.375000	-109.693192
6632.812500	-116.761719
6656.250000	-122.298965
6679.687500	-120.513962
6703.125000	-121.846512
6726.562500	-122.008141
6750.000000	-124.137589
6773.437500	-124.939003
6796.875000	-125.396126
6820.312500	-124.858292
6843.750000	-123.320099
6867.187500	-120.860573
6890.625000	-117.770790
6914.062500	-118.414459
6937.500000	-122.853111
6960.937500	-124.172569
6984.375000	-123.383865
7007.812500	-123.140625
7031.250000	-122.834702
7054.687500	-123.272987
7078.125000	-120.191490
7101.562500	-121.129189
7125.000000	-125.141670
7148.437500	-125.502342
7171.875000	-125.673820
7195.312500	-125.346771
7218.750000	-125.316162
7242.187500	-126.199356
7265.625000	-126.560394
7289.062500	-126.588203
7312.500000	-126.453835
7335.937500	-125.866730
7359.375000	-126.022247
7382.812500	-126.156044
7406.250000	-125.071930
7429.687500	-125.331985
7453.125000	-122.914948
7476.562500	-119.145874
7500.000000	-115.203270
7523.437500	-115.312859
7546.875000	-121.097115
7570.312500	-125.094032
7593.750000	-126.186043
7617.187500	-125.442657
7640.625000	-125.648590
7664.062500	-125.806122
7687.500000	-125.933716
7710.937500	-125.683311
7734.375000	-125.984802
7757.812500	-126.632843
7781.250000	-126.380997
7804.687500	-126.375778
7828.125000	-125.068459
7851.562500	-122.790482
7875.000000	-124.757393
7898.437500	-125.666489
7921.875000	-124.826614
7945.312500	-121.473740
7968.750000	-115.465332
7992.187500	-116.245171
8015.625000	-123.245796
8039.062500	-125.554138
8062.500000	-125.423576
8085.937500	-125.363594
8109.375000	-126.071388
8132.812500	-126.286636
8156.250000	-126.318916
8179.687500	-126.927429
8203.125000	-127.005180
8226.562500	-126.657043
8250.000000	-125.580833
8273.437500	-123.470543
8296.875000	-124.227776
8320.312500	-123.860748
8343.750000	-123.674805
8367.187500	-124.618698
8390.625000	-124.238396
8414.062500	-120.053841
8437.500000	-118.352303
8460.937500	-118.013535
8484.375000	-121.427589
8507.812500	-123.782867
8531.250000	-123.270493
8554.687500	-120.953575
8578.125000	-123.335304
8601.562500	-125.710335
8625.000000	-125.697403
8648.437500	-125.581245
8671.875000	-125.493805
8695.312500	-125.523865
8718.750000	-125.729683
8742.187500	-125.912498
8765.625000	-126.253906
8789.062500	-126.598770
8812.500000	-126.195366
8835.937500	-125.856178
8859.375000	-125.571770
8882.812500	-125.137665
8906.250000	-124.915764
8929.687500	-126.039757
8953.125000	-126.599937
8976.562500	-126.950027
9000.000000	-126.911888
9023.437500	-127.216240
9046.875000	-127.240471
9070.312500	-126.773338
9093.750000	-123.976242
9117.187500	-122.691277
9140.625000	-125.038818
9164.062500	-127.377655
9187.500000	-126.812485
9210.937500	-126.701591
9234.375000	-126.768143
9257.812500	-126.468147
9281.250000	-126.096664
9304.687500	-125.927376
9328.125000	-125.809212
9351.562500	-125.514069
9375.000000	-125.345680
9398.437500	-125.295181
9421.875000	-125.401230
9445.312500	-126.216125
9468.750000	-126.617630
9492.187500	-126.813957
9515.625000	-127.198944
9539.062500	-127.556511
9562.500000	-127.427078
9585.937500	-127.216209
9609.375000	-126.732002
9632.812500	-125.632301
9656.250000	-125.668007
9679.687500	-126.272415
9703.125000	-127.020218
9726.562500	-127.483269
9750.000000	-127.547447
9773.437500	-127.276909
9796.875000	-127.099876
9820.312500	-127.284195
9843.750000	-125.941360
9867.187500	-125.415001
9890.625000	-126.876068
9914.062500	-127.560120
9937.500000	-127.350510
9960.937500	-127.246696
9984.375000	-127.207283
10007.812500	-127.667618
10031.250000	-127.505280
10054.687500	-127.584694
10078.125000	-128.022369
10101.562500	-127.890503
10125.000000	-127.468842
10148.437500	-126.539894
10171.875000	-126.524475
10195.312500	-126.936783
10218.750000	-126.204803
10242.187500	-123.491844
10265.625000	-121.418037
10289.062500	-122.321602
10312.500000	-124.662750
10335.937500	-125.222702
10359.375000	-126.265480
10382.812500	-127.342720
10406.250000	-127.469170
10429.687500	-127.098053
10453.125000	-127.015785
10476.562500	-127.764160
10500.000000	-127.929115
10523.437500	-127.820969
10546.875000	-127.319931
10570.312500	-127.863327
10593.750000	-127.830521
10617.187500	-128.037766
10640.625000	-128.082489
10664.062500	-127.959763
10687.500000	-128.176773
10710.937500	-128.316910
10734.375000	-128.033081
10757.812500	-127.879005
10781.250000	-127.923820
10804.687500	-128.163269
10828.125000	-128.265015
10851.562500	-128.356430
10875.000000	-128.357346
10898.437500	-128.253983
10921.875000	-128.021393
10945.312500	-128.165009
10968.750000	-128.115952
10992.187500	-127.876328
11015.625000	-128.047287
11039.062500	-128.365646
11062.500000	-128.091599
11085.937500	-128.013046
11109.375000	-128.142563
11132.812500	-128.246490
11156.250000	-128.210312
11179.687500	-127.975708
11203.125000	-127.964607
11226.562500	-127.999619
11250.000000	-128.155609
11273.437500	-128.353165
11296.875000	-128.069550
11320.312500	-127.935745
11343.750000	-128.150742
11367.187500	-127.952240
11390.625000	-127.766747
11414.062500	-127.611656
11437.500000	-127.893776
11460.937500	-128.005676
11484.375000	-127.702759
11507.812500	-127.961609
11531.250000	-128.129807
11554.687500	-127.984276
11578.125000	-128.062317
11601.562500	-128.477341
11625.000000	-128.363373
11648.437500	-128.188995
11671.875000	-128.192596
11695.312500	-128.092926
11718.750000	-127.923157
11742.187500	-128.165482
11765.625000	-128.444748
11789.062500	-128.300766
11812.500000	-127.942047
11835.937500	-128.043823
11859.375000	-128.093430
11882.812500	-128.202576
11906.250000	-128.187180
11929.687500	-128.320587
11953.125000	-128.328186
11976.562500	-128.349258
12000.000000	-128.462021
12023.437500	-128.481857
12046.875000	-128.345795
12070.312500	-128.231750
12093.750000	-128.337723
12117.187500	-128.478821
12140.625000	-128.614395
12164.062500	-128.497650
12187.500000	-128.353729
12210.937500	-128.421326
12234.375000	-128.516907
12257.812500	-128.506104
12281.250000	-128.474960
12304.687500	-128.405014
12328.125000	-128.323212
12351.562500	-128.385147
12375.000000	-128.451889
12398.437500	-128.583267
12421.875000	-128.582062
12445.312500	-128.297668
12468.750000	-128.417038
12492.187500	-128.463013
12515.625000	-128.387833
12539.062500	-128.485779
12562.500000	-128.340393
12585.937500	-128.150665
12609.375000	-128.192047
12632.812500	-128.384827
12656.250000	-128.336212
12679.687500	-128.367676
12703.125000	-128.366058
12726.562500	-128.363464
12750.000000	-128.444351
12773.437500	-128.364883
12796.875000	-128.459885
12820.312500	-128.423828
12843.750000	-128.468063
12867.187500	-128.453598
12890.625000	-128.468048
12914.062500	-128.453903
12937.500000	-128.397400
12960.937500	-128.443817
12984.375000	-128.473694
13007.812500	-128.538315
13031.250000	-128.436630
13054.687500	-128.297379
13078.125000	-128.642426
13101.562500	-128.773026
13125.000000	-128.698807
13148.437500	-128.676956
13171.875000	-128.500916
13195.312500	-128.418549
13218.750000	-128.508545
13242.187500	-128.728134
13265.625000	-128.630188
13289.062500	-128.518799
13312.500000	-128.612976
13335.937500	-128.708633
13359.375000	-128.668961
13382.812500	-128.464783
13406.250000	-128.559937
13429.687500	-128.677841
13453.125000	-128.783981
13476.562500	-128.651855
13500.000000	-128.663727
13523.437500	-128.758606
13546.875000	-128.814011
13570.312500	-128.604004
13593.750000	-128.524582
13617.187500	-128.590393
13640.625000	-128.555786
13664.062500	-128.544357
13687.500000	-128.600662
13710.937500	-128.692123
13734.375000	-128.794235
13757.812500	-128.758514
13781.250000	-128.582336
13804.687500	-128.527847
13828.125000	-128.632355
13851.562500	-128.572815
13875.000000	-128.702118
13898.437500	-128.658875
13921.875000	-128.665222
13945.312500	-128.769394
13968.750000	-128.680389
13992.187500	-128.765732
14015.625000	-128.748779
14039.062500	-128.649521
14062.500000	-128.752975
14085.937500	-128.651230
14109.375000	-128.463303
14132.812500	-128.514801
14156.250000	-128.661423
14179.687500	-128.697510
14203.125000	-128.627213
14226.562500	-128.729660
14250.000000	-128.733627
14273.437500	-128.660767
14296.875000	-128.691452
14320.312500	-128.565933
14343.750000	-128.553619
14367.187500	-128.502853
14390.625000	-128.517838
14414.062500	-128.683411
14437.500000	-128.635925
14460.937500	-128.779846
14484.375000	-128.762543
14507.812500	-128.860550
14531.250000	-128.989838
14554.687500	-128.839752
14578.125000	-128.849426
14601.562500	-128.820969
14625.000000	-128.628922
14648.437500	-128.600494
14671.875000	-128.838837
14695.312500	-128.911606
14718.750000	-128.821091
14742.187500	-128.850006
14765.625000	-128.932129
14789.062500	-128.919983
14812.500000	-128.744019
14835.937500	-128.736160
14859.375000	-128.895081
14882.812500	-128.982742
14906.250000	-129.025070
14929.687500	-128.941254
14953.125000	-128.907578
14976.562500	-128.853653
15000.000000	-128.886673
15023.437500	-128.904922
15046.875000	-128.876617
15070.312500	-128.791824
15093.750000	-128.845123
15117.187500	-128.936188
15140.625000	-128.911987
15164.062500	-128.628448
15187.500000	-128.560257
15210.937500	-128.755402
15234.375000	-128.966782
15257.812500	-128.976334
15281.250000	-129.018921
15304.687500	-129.095566
15328.125000	-128.924866
15351.562500	-128.928253
15375.000000	-128.827087
15398.437500	-128.888641
15421.875000	-129.043350
15445.312500	-128.908600
15468.750000	-128.685013
15492.187500	-128.741287
15515.625000	-128.897522
15539.062500	-129.063477
15562.500000	-129.033417
15585.937500	-128.989105
15609.375000	-128.923615
15632.812500	-128.868530
15656.250000	-129.029465
15679.687500	-129.091736
15703.125000	-128.968124
15726.562500	-128.968857
15750.000000	-128.840332
15773.437500	-128.864594
15796.875000	-128.952545
15820.312500	-128.960876
15843.750000	-128.899231
15867.187500	-128.998550
15890.625000	-129.043457
15914.062500	-129.012985
15937.500000	-129.045166
15960.937500	-129.053055
15984.375000	-129.028870
16007.812500	-128.952728
16031.250000	-128.783997
16054.687500	-128.916443
16078.125000	-128.852097
16101.562500	-128.900696
16125.000000	-128.994781
16148.437500	-129.050812
16171.875000	-129.003876
16195.312500	-128.893723
16218.750000	-128.991699
16242.187500	-129.041290
16265.625000	-128.909393
16289.062500	-128.915054
16312.500000	-129.004639
16335.937500	-128.981598
16359.375000	-128.970673
16382.812500	-128.925186
16406.250000	-128.964050
16429.687500	-128.976852
16453.125000	-128.930679
16476.562500	-128.975616
16500.000000	-128.992981
16523.437500	-129.128006
16546.875000	-129.041016
16570.312500	-128.990768
16593.750000	-129.035385
16617.187500	-128.949005
16640.625000	-129.024658
16664.062500	-129.054459
16687.500000	-128.969025
16710.937500	-129.021606
16734.375000	-129.045929
16757.812500	-128.983017
16781.250000	-129.052170
16804.687500	-129.082825
16828.125000	-129.093765
16851.562500	-129.150528
16875.000000	-129.182724
16898.437500	-129.102051
16921.875000	-129.102173
16945.312500	-129.140503
16968.750000	-129.198639
16992.187500	-129.201157
17015.625000	-129.203232
17039.062500	-129.135635
17062.500000	-129.077118
17085.937500	-129.099701
17109.375000	-129.129532
17132.812500	-129.086349
17156.250000	-128.983170
17179.687500	-128.941040
17203.125000	-128.929688
17226.562500	-128.967941
17250.000000	-129.063263
17273.437500	-129.117920
17296.875000	-129.034424
17320.312500	-129.045837
17343.750000	-129.111267
17367.187500	-129.124023
17390.625000	-129.063171
17414.062500	-129.178680
17437.500000	-129.108856
17460.937500	-128.961716
17484.375000	-129.000244
17507.812500	-128.986679
17531.250000	-129.098907
17554.687500	-129.209335
17578.125000	-129.150925
17601.562500	-129.234589
17625.000000	-129.207092
17648.437500	-129.119858
17671.875000	-129.075134
17695.312500	-129.079895
17718.750000	-129.074295
17742.187500	-129.064728
17765.625000	-128.981323
17789.062500	-129.033005
17812.500000	-129.093369
17835.937500	-129.112396
17859.375000	-129.159973
17882.812500	-129.108444
17906.250000	-129.119888
17929.687500	-129.181656
17953.125000	-129.145432
17976.562500	-129.124832
18000.000000	-129.104279
18023.437500	-129.172119
18046.875000	-129.285660
18070.312500	-129.178589
18093.750000	-129.094803
18117.187500	-129.182465
18140.625000	-129.236191
18164.062500	-129.209900
18187.500000	-129.195786
18210.937500	-129.102753
18234.375000	-129.114288
18257.812500	-129.132187
18281.250000	-129.115570
18304.687500	-129.148987
18328.125000	-129.193176
18351.562500	-129.175293
18375.000000	-129.184311
18398.437500	-129.196701
18421.875000	-129.274078
18445.312500	-129.075745
18468.750000	-129.068192
18492.187500	-129.203308
18515.625000	-129.150101
18539.062500	-129.108276
18562.500000	-129.095871
18585.937500	-129.064255
18609.375000	-129.189560
18632.812500	-129.197662
18656.250000	-129.118927
18679.687500	-129.124985
18703.125000	-129.080688
18726.562500	-129.116028
18750.000000	-129.132523
18773.437500	-129.086273
18796.875000	-129.088013
18820.312500	-129.124435
18843.750000	-129.136978
18867.187500	-129.218521
18890.625000	-129.198380
18914.062500	-129.138397
18937.500000	-129.266266
18960.937500	-129.137787
18984.375000	-129.156677
19007.812500	-129.077911
19031.250000	-129.132477
19054.687500	-129.185654
19078.125000	-129.195801
19101.562500	-129.140991
19125.000000	-129.200638
19148.437500	-129.053284
19171.875000	-128.762909
19195.312500	-128.755997
19218.750000	-128.945267
19242.187500	-128.839188
19265.625000	-128.858185
19289.062500	-129.104172
19312.500000	-129.089066
19335.937500	-129.089905
19359.375000	-129.141068
19382.812500	-129.159363
19406.250000	-129.178421
19429.687500	-129.160034
19453.125000	-129.149002
19476.562500	-129.149597
19500.000000	-129.150269
19523.437500	-129.141098
19546.875000	-129.117126
19570.312500	-129.064651
19593.750000	-129.184708
19617.187500	-129.199158
19640.625000	-129.291977
19664.062500	-129.227264
19687.500000	-129.182877
19710.937500	-129.245544
19734.375000	-129.224564
19757.812500	-129.170319
19781.250000	-129.151154
19804.687500	-129.208115
19828.125000	-129.163162
19851.562500	-129.238007
19875.000000	-129.214233
19898.437500	-129.157898
19921.875000	-129.111572
19945.312500	-129.033783
19968.750000	-128.941452
19992.187500	-129.105515
20015.625000	-129.056915
20039.062500	-129.009232
20062.500000	-129.135834
20085.937500	-129.132843
20109.375000	-129.060699
20132.812500	-128.951324
20156.250000	-129.186890
20179.687500	-129.296509
20203.125000	-129.258240
20226.562500	-129.212128
20250.000000	-129.153946
20273.437500	-129.095428
20296.875000	-129.130356
20320.312500	-129.162155
20343.750000	-129.292877
20367.187500	-129.198135
20390.625000	-129.085403
20414.062500	-129.053955
20437.500000	-129.180634
20460.937500	-129.267578
20484.375000	-129.201447
20507.812500	-129.202942
20531.250000	-129.198303
20554.687500	-129.160416
20578.125000	-129.142746
20601.562500	-129.260773
20625.000000	-129.258926
20648.437500	-129.312744
20671.875000	-129.344345
20695.312500	-129.200272
20718.750000	-129.251740
20742.187500	-129.269608
20765.625000	-129.140167
20789.062500	-129.161514
20812.500000	-129.216568
20835.937500	-129.216599
20859.375000	-129.221405
20882.812500	-129.206177
20906.250000	-129.271210
20929.687500	-129.237885
20953.125000	-129.313202
20976.562500	-129.261871
21000.000000	-129.209000
21023.437500	-129.263596
21046.875000	-129.234192
21070.312500	-129.184174
21093.750000	-129.132217
21117.187500	-129.123688
21140.625000	-129.122162
21164.062500	-129.212555
21187.500000	-129.245560
21210.937500	-129.130249
21234.375000	-129.137695
21257.812500	-129.177872
21281.250000	-129.244720
21304.687500	-129.205872
21328.125000	-129.200867
21351.562500	-129.218338
21375.000000	-129.251434
21398.437500	-129.249954
21421.875000	-129.198044
21445.312500	-129.246948
21468.750000	-129.238785
21492.187500	-129.262436
21515.625000	-129.172760
21539.062500	-129.165054
21562.500000	-129.196609
21585.937500	-129.221146
21609.375000	-129.218414
21632.812500	-129.323425
21656.250000	-129.256439
21679.687500	-129.253662
21703.125000	-129.304733
21726.562500	-129.271362
21750.000000	-129.153702
21773.437500	-129.249832
21796.875000	-129.374161
21820.312500	-129.232269
21843.750000	-129.142242
21867.187500	-129.107651
21890.625000	-129.151886
21914.062500	-129.263916
21937.500000	-129.257339
21960.937500	-129.278259
21984.375000	-129.224731
22007.812500	-129.220947
22031.250000	-129.176819
22054.687500	-129.230820
22078.125000	-129.239487
22101.562500	-129.244370
22125.000000	-129.189957
22148.437500	-129.203720
22171.875000	-129.219543
22195.312500	-129.155716
22218.750000	-129.228363
22242.187500	-129.192307
22265.625000	-129.285645
22289.062500	-129.252411
22312.500000	-129.177612
22335.937500	-129.190628
22359.375000	-129.125443
22382.812500	-129.177887
22406.250000	-129.216446
22429.687500	-129.216492
22453.125000	-129.270721
22476.562500	-129.190277
22500.000000	-129.265533
22523.437500	-129.153915
22546.875000	-129.179611
22570.312500	-129.241943
22593.750000	-129.142059
22617.187500	-129.133804
22640.625000	-129.126358
22664.062500	-129.179626
22687.500000	-129.130798
22710.937500	-129.095383
22734.375000	-129.160492
22757.812500	-129.175171
22781.250000	-129.141296
22804.687500	-129.205612
22828.125000	-129.204071
22851.562500	-129.093857
22875.000000	-129.087555
22898.437500	-129.185196
22921.875000	-129.234573
22945.312500	-129.074448
22968.750000	-129.163284
22992.187500	-129.252289
23015.625000	-129.224548
23039.062500	-129.268951
23062.500000	-129.273682
23085.937500	-129.319672
23109.375000	-129.287720
23132.812500	-129.232117
23156.250000	-129.165863
23179.687500	-129.230865
23203.125000	-129.257690
23226.562500	-129.201599
23250.000000	-129.166748
23273.437500	-129.239227
23296.875000	-129.270233
23320.312500	-129.207489
23343.750000	-129.051559
23367.187500	-129.213425
23390.625000	-129.238861
23414.062500	-129.213058
23437.500000	-129.212860
23460.937500	-129.227325
23484.375000	-129.137054
23507.812500	-129.154312
23531.250000	-129.257004
23554.687500	-129.221252
23578.125000	-129.157150
23601.562500	-129.218201
23625.000000	-129.312592
23648.437500	-129.199432
23671.875000	-129.172806
23695.312500	-129.230713
23718.750000	-129.179245
23742.187500	-129.241455
23765.625000	-129.139969
23789.062500	-129.142090
23812.500000	-129.137497
23835.937500	-129.114380
23859.375000	-129.116699
23882.812500	-129.044968
23906.250000	-129.129425
23929.687500	-129.229843
23953.125000	-129.187424
23976.562500	-129.144211
24000.000000	-129.181854
24023.437500	-129.132141
24046.875000	-129.154648
24070.312500	-129.185318
24093.750000	-129.121475
24117.187500	-129.149216
24140.625000	-129.192505
24164.062500	-129.118210
24187.500000	-129.193069
24210.937500	-129.216309
24234.375000	-129.177536
24257.812500	-129.170731
24281.250000	-129.306808
24304.687500	-129.263779
24328.125000	-129.269684
24351.562500	-129.211716
24375.000000	-129.256561
24398.437500	-129.245712
24421.875000	-129.170822
24445.312500	-129.191437
24468.750000	-129.193375
24492.187500	-129.175308
24515.625000	-129.117386
24539.062500	-129.128204
24562.500000	-129.235901
24585.937500	-129.301529
24609.375000	-129.261459
24632.812500	-129.143478
24656.250000	-129.168015
24679.687500	-129.242722
24703.125000	-129.260101
24726.562500	-129.133377
24750.000000	-129.195633
24773.437500	-129.159058
24796.875000	-129.265091
24820.312500	-129.331161
24843.750000	-129.187546
24867.187500	-129.127136
24890.625000	-129.122437
24914.062500	-129.109207
24937.500000	-129.193497
24960.937500	-129.176376
24984.375000	-129.146606
25007.812500	-129.058060
25031.250000	-129.039459
25054.687500	-129.113907
25078.125000	-129.147873
25101.562500	-129.193878
25125.000000	-129.083237
25148.437500	-129.066696
25171.875000	-129.184036
25195.312500	-129.201660
25218.750000	-129.156586
25242.187500	-129.104752
25265.625000	-129.010666
25289.062500	-129.126953
25312.500000	-129.174713
25335.937500	-129.114639
25359.375000	-129.183350
25382.812500	-129.133545
25406.250000	-129.104843
25429.687500	-129.172379
25453.125000	-129.067551
25476.562500	-129.064148
25500.000000	-129.176758
25523.437500	-129.282761
25546.875000	-129.249054
25570.312500	-129.224930
25593.750000	-129.209579
25617.187500	-129.097061
25640.625000	-129.174683
25664.062500	-129.192093
25687.500000	-129.226990
25710.937500	-129.162109
25734.375000	-129.132187
25757.812500	-129.168198
25781.250000	-129.222183
25804.687500	-129.237335
25828.125000	-129.158051
25851.562500	-129.231888
25875.000000	-129.281342
25898.437500	-129.154785
25921.875000	-129.219971
25945.312500	-129.209854
25968.750000	-129.143616
25992.187500	-129.162674
26015.625000	-129.110779
26039.062500	-129.181778
26062.500000	-129.142181
26085.937500	-129.144287
26109.375000	-129.103073
26132.812500	-129.126617
26156.250000	-129.122910
26179.687500	-129.118484
26203.125000	-129.068848
26226.562500	-129.098007
26250.000000	-129.204178
26273.437500	-129.177200
26296.875000	-129.170959
26320.312500	-129.140854
26343.750000	-129.138474
26367.187500	-129.135986
26390.625000	-129.159439
26414.062500	-129.176041
26437.500000	-129.174881
26460.937500	-129.175781
26484.375000	-129.227432
26507.812500	-129.191254
26531.250000	-129.132828
26554.687500	-129.184326
26578.125000	-129.176910
26601.562500	-129.196213
26625.000000	-129.172424
26648.437500	-129.158127
26671.875000	-129.130829
26695.312500	-129.022476
26718.750000	-129.055435
26742.187500	-129.086761
26765.625000	-129.038040
26789.062500	-129.092529
26812.500000	-129.136353
26835.937500	-129.131622
26859.375000	-129.205292
26882.812500	-129.059875
26906.250000	-129.111893
26929.687500	-129.175385
26953.125000	-129.156952
26976.562500	-129.199173
27000.000000	-129.102280
27023.437500	-129.078888
27046.875000	-129.147034
27070.312500	-129.093155
27093.750000	-129.057709
27117.187500	-129.119598
27140.625000	-129.144531
27164.062500	-129.192261
27187.500000	-129.123795
27210.937500	-129.209076
27234.375000	-129.232361
27257.812500	-129.142639
27281.250000	-129.040573
27304.687500	-129.072586
27328.125000	-129.070892
27351.562500	-129.093109
27375.000000	-129.131485
27398.437500	-129.193207
27421.875000	-129.147354
27445.312500	-129.138123
27468.750000	-129.214340
27492.187500	-129.133743
27515.625000	-129.075653
27539.062500	-129.149582
27562.500000	-129.065903
27585.937500	-129.029297
27609.375000	-129.066483
27632.812500	-129.095612
27656.250000	-129.089417
27679.687500	-129.111862
27703.125000	-129.118744
27726.562500	-129.051010
27750.000000	-129.078506
27773.437500	-129.175568
27796.875000	-129.256302
27820.312500	-129.072891
27843.750000	-128.996704
27867.187500	-129.097763
27890.625000	-129.166428
27914.062500	-129.180450
27937.500000	-129.175049
27960.937500	-129.091568
27984.375000	-129.077362
28007.812500	-129.047089
28031.250000	-129.141708
28054.687500	-129.143616
28078.125000	-129.125259
28101.562500	-129.107635
28125.000000	-129.135330
28148.437500	-129.166626
28171.875000	-129.043671
28195.312500	-129.013519
28218.750000	-129.156555
28242.187500	-129.125214
28265.625000	-128.950912
28289.062500	-129.003128
28312.500000	-129.144073
28335.937500	-129.144699
28359.375000	-129.205383
28382.812500	-129.149475
28406.250000	-129.149673
28429.687500	-129.118988
28453.125000	-129.087280
28476.562500	-129.123672
28500.000000	-129.245621
28523.437500	-129.106003
28546.875000	-129.094025
28570.312500	-129.167694
28593.750000	-129.108627
28617.187500	-129.099411
28640.625000	-129.044281
28664.062500	-128.968567
28687.500000	-129.099030
28710.937500	-129.122208
28734.375000	-129.101685
28757.812500	-129.038559
28781.250000	-129.061340
28804.687500	-129.063675
28828.125000	-129.106949
28851.562500	-129.021362
28875.000000	-129.045944
28898.437500	-129.104736
28921.875000	-129.167252
28945.312500	-129.145630
28968.750000	-129.039200
28992.187500	-129.043625
29015.625000	-129.125488
29039.062500	-129.182587
29062.500000	-129.195419
29085.937500	-129.198975
29109.375000	-129.223755
29132.812500	-129.099213
29156.250000	-128.991776
29179.687500	-129.110626
29203.125000	-129.138870
29226.562500	-129.130356
29250.000000	-129.141708
29273.437500	-129.160446
29296.875000	-129.137756
29320.312500	-129.147324
29343.750000	-129.079544
29367.187500	-129.097046
29390.625000	-129.134094
29414.062500	-129.071854
29437.500000	-129.139938
29460.937500	-129.136017
29484.375000	-129.052811
29507.812500	-129.153625
29531.250000	-129.216400
29554.687500	-129.137863
29578.125000	-129.167694
29601.562500	-129.150879
29625.000000	-129.128815
29648.437500	-129.085464
29671.875000	-129.072189
29695.312500	-129.086807
29718.750000	-129.112839
29742.187500	-129.149918
29765.625000	-129.049347
29789.062500	-129.054367
29812.500000	-129.094147
29835.937500	-129.041779
29859.375000	-129.124023
29882.812500	-129.158325
29906.250000	-129.143860
29929.687500	-129.111633
29953.125000	-129.086136
29976.562500	-129.142471
30000.000000	-129.182327
30023.437500	-129.117310
30046.875000	-129.112457
30070.312500	-129.146591
30093.750000	-129.075989
30117.187500	-129.024857
30140.625000	-129.102158
30164.062500	-129.114380
30187.500000	-129.147049
30210.937500	-129.137711
30234.375000	-129.129166
30257.812500	-129.095551
30281.250000	-129.151886
30304.687500	-129.136414
30328.125000	-129.156601
30351.562500	-129.078186
30375.000000	-129.118668
30398.437500	-129.215073
30421.875000	-129.058289
30445.312500	-129.062485
30468.750000	-129.121490
30492.187500	-129.038971
30515.625000	-129.075134
30539.062500	-129.067490
30562.500000	-129.181854
30585.937500	-129.162079
30609.375000	-129.170624
30632.812500	-129.193893
30656.250000	-129.090851
30679.687500	-129.131729
30703.125000	-129.094864
30726.562500	-129.053009
30750.000000	-129.064087
30773.437500	-129.077606
30796.875000	-129.042908
30820.312500	-129.157516
30843.750000	-129.154785
30867.187500	-129.108749
30890.625000	-129.188950
30914.062500	-129.114761
30937.500000	-129.191895
30960.937500	-129.170486
30984.375000	-129.012787
31007.812500	-129.157379
31031.250000	-129.269119
31054.687500	-129.072403
31078.125000	-129.061279
31101.562500	-129.091400
31125.000000	-129.113342
31148.437500	-129.023224
31171.875000	-129.059784
31195.312500	-129.073517
31218.750000	-129.086044
31242.187500	-129.036087
31265.625000	-129.005951
31289.062500	-129.232407
31312.500000	-129.139099
31335.937500	-129.047241
31359.375000	-129.093826
31382.812500	-129.183731
31406.250000	-129.172073
31429.687500	-129.106750
31453.125000	-129.099609
31476.562500	-129.060806
31500.000000	-129.039490
31523.437500	-129.021561
31546.875000	-128.998138
31570.312500	-129.048615
31593.750000	-129.104294
31617.187500	-129.111328
31640.625000	-129.011444
31664.062500	-129.022827
31687.500000	-129.028519
31710.937500	-129.083588
31734.375000	-129.055313
31757.812500	-129.073151
31781.250000	-129.023499
31804.687500	-128.999649
31828.125000	-129.072403
31851.562500	-129.110291
31875.000000	-129.127762
31898.437500	-129.069092
31921.875000	-129.050735
31945.312500	-129.038589
31968.750000	-129.069687
31992.187500	-129.009232
32015.625000	-129.023071
32039.062500	-129.014999
32062.500000	-129.018463
32085.937500	-129.104034
32109.375000	-129.120728
32132.812500	-129.211868
32156.250000	-129.087723
32179.687500	-128.999054
32203.125000	-129.007889
32226.562500	-129.050125
32250.000000	-129.046799
32273.437500	-128.997025
32296.875000	-129.081360
32320.312500	-128.975403
32343.750000	-129.095032
32367.187500	-129.129730
32390.625000	-129.071747
32414.062500	-129.081970
32437.500000	-129.074707
32460.937500	-129.034882
32484.375000	-129.078140
32507.812500	-129.052628
32531.250000	-129.037018
32554.687500	-129.007553
32578.125000	-129.058121
32601.562500	-129.081879
32625.000000	-129.047668
32648.437500	-128.949463
32671.875000	-128.944427
32695.312500	-129.058868
32718.750000	-129.005676
32742.187500	-128.890884
32765.625000	-129.058105
32789.062500	-129.143402
32812.500000	-129.057571
32835.937500	-129.058731
32859.375000	-128.924194
32882.812500	-128.998276
32906.250000	-129.060623
32929.687500	-129.065582
32953.125000	-129.052002
32976.562500	-129.061234
33000.000000	-129.056732
33023.437500	-129.005646
33046.875000	-128.976471
33070.312500	-128.996780
33093.750000	-128.949432
33117.187500	-129.087051
33140.625000	-129.004761
33164.062500	-129.110947
33187.500000	-129.119522
33210.937500	-129.047928
33234.375000	-128.929337
33257.812500	-128.981537
33281.250000	-129.065582
33304.687500	-129.097504
33328.125000	-129.055908
33351.562500	-129.144440
33375.000000	-129.014816
33398.437500	-128.834579
33421.875000	-128.908539
33445.312500	-129.089508
33468.750000	-129.010498
33492.187500	-128.956192
33515.625000	-129.036484
33539.062500	-128.988342
33562.500000	-128.982986
33585.937500	-128.990433
33609.375000	-128.931595
33632.812500	-128.977631
33656.250000	-129.003815
33679.687500	-128.957901
33703.125000	-128.982040
33726.562500	-128.927475
33750.000000	-128.983337
33773.437500	-129.047958
33796.875000	-129.052139
33820.312500	-129.104584
33843.750000	-129.003769
33867.187500	-129.019806
33890.625000	-129.096054
33914.062500	-128.942841
33937.500000	-128.991669
33960.937500	-129.092438
33984.375000	-129.052505
34007.812500	-129.035889
34031.250000	-129.055862
34054.687500	-128.973648
34078.125000	-128.984833
34101.562500	-128.996597
34125.000000	-129.030258
34148.437500	-128.981934
34171.875000	-129.007706
34195.312500	-129.046524
34218.750000	-128.931412
34242.187500	-128.986496
34265.625000	-128.910782
34289.062500	-128.973679
34312.500000	-129.057709
34335.937500	-129.020920
34359.375000	-128.959549
34382.812500	-128.962158
34406.250000	-128.972305
34429.687500	-129.025284
34453.125000	-128.986679
34476.562500	-128.994476
34500.000000	-129.011444
34523.437500	-129.025711
34546.875000	-129.035553
34570.312500	-129.122681
34593.750000	-129.079742
34617.187500	-128.948074
34640.625000	-128.983459
34664.062500	-129.021820
34687.500000	-129.133865
34710.937500	-128.982559
34734.375000	-128.899353
34757.812500	-128.911011
34781.250000	-129.056458
34804.687500	-129.064072
34828.125000	-129.034225
34851.562500	-128.941269
34875.000000	-128.951477
34898.437500	-128.958664
34921.875000	-128.990479
34945.312500	-128.939758
34968.750000	-129.003571
34992.187500	-128.996887
35015.625000	-129.004059
35039.062500	-128.908722
35062.500000	-128.919388
35085.937500	-128.987518
35109.375000	-128.964233
35132.812500	-128.985687
35156.250000	-129.098251
35179.687500	-129.053574
35203.125000	-128.982132
35226.562500	-129.075012
35250.000000	-129.030289
35273.437500	-128.965302
35296.875000	-129.059814
35320.312500	-129.097870
35343.750000	-128.958786
35367.187500	-128.877472
35390.625000	-128.973434
35414.062500	-129.042450
35437.500000	-129.039246
35460.937500	-128.981934
35484.375000	-128.898178
35507.812500	-129.046295
35531.250000	-128.959869
35554.687500	-128.934875
35578.125000	-128.958313
35601.562500	-129.003067
35625.000000	-129.023819
35648.437500	-129.055695
35671.875000	-129.069351
35695.312500	-129.081528
35718.750000	-129.060547
35742.187500	-128.898590
35765.625000	-128.876617
35789.062500	-129.031433
35812.500000	-128.991486
35835.937500	-129.020416
35859.375000	-129.051590
35882.812500	-129.051407
35906.250000	-129.036926
35929.687500	-129.031204
35953.125000	-128.965149
35976.562500	-128.966202
36000.000000	-128.889297
36023.437500	-128.885529
36046.875000	-128.936142
36070.312500	-128.963303
36093.750000	-128.944687
36117.187500	-129.021240
36140.625000	-129.016922
36164.062500	-128.976669
36187.500000	-129.037750
36210.937500	-128.989655
36234.375000	-129.045029
36257.812500	-128.874390
36281.250000	-128.853287
36304.687500	-128.905258
36328.125000	-128.915543
36351.562500	-128.996124
36375.000000	-129.026611
36398.437500	-129.073822
36421.875000	-128.979630
36445.312500	-128.915421
36468.750000	-128.857178
36492.187500	-128.885544
36515.625000	-128.882767
36539.062500	-128.980484
36562.500000	-129.038956
36585.937500	-128.987030
36609.375000	-128.983536
36632.812500	-128.954956
36656.250000	-128.882706
36679.687500	-128.887375
36703.125000	-128.926544
36726.562500	-128.912567
36750.000000	-128.931030
36773.437500	-128.954483
36796.875000	-128.901260
36820.312500	-128.982330
36843.750000	-128.963287
36867.187500	-128.993454
36890.625000	-128.933884
36914.062500	-128.937149
36937.500000	-128.917664
36960.937500	-128.936371
36984.375000	-128.918076
37007.812500	-128.937927
37031.250000	-128.970612
37054.687500	-128.973892
37078.125000	-128.873032
37101.562500	-128.939407
37125.000000	-128.971375
37148.437500	-129.021652
37171.875000	-128.876007
37195.312500	-128.819687
37218.750000	-128.858017
37242.187500	-128.922348
37265.625000	-128.901413
37289.062500	-128.849335
37312.500000	-128.897415
37335.937500	-128.918335
37359.375000	-129.070160
37382.812500	-128.950546
37406.250000	-128.985886
37429.687500	-129.062698
37453.125000	-129.012360
37476.562500	-128.847534
37500.000000	-128.879623
37523.437500	-128.903366
37546.875000	-128.938232
37570.312500	-128.979446
37593.750000	-128.940079
37617.187500	-128.928619
37640.625000	-128.970932
37664.062500	-128.892731
37687.500000	-128.823624
37710.937500	-128.876358
37734.375000	-128.914688
37757.812500	-128.848221
37781.250000	-128.898239
37804.687500	-128.872269
37828.125000	-128.842453
37851.562500	-128.997253
37875.000000	-129.009186
37898.437500	-129.108368
37921.875000	-128.938339
37945.312500	-128.857727
37968.750000	-128.850632
37992.187500	-128.934113
38015.625000	-129.036316
38039.062500	-128.999390
38062.500000	-128.899811
38085.937500	-128.890121
38109.375000	-128.982376
38132.812500	-128.969391
38156.250000	-128.903580
38179.687500	-128.945206
38203.125000	-128.909439
38226.562500	-128.924561
38250.000000	-128.885864
38273.437500	-128.857468
38296.875000	-128.895477
38320.312500	-128.772949
38343.750000	-128.826096
38367.187500	-128.879028
38390.625000	-128.912231
38414.062500	-128.873505
38437.500000	-128.904434
38460.937500	-128.900879
38484.375000	-128.929382
38507.812500	-128.906952
38531.250000	-128.940018
38554.687500	-128.846558
38578.125000	-128.808365
38601.562500	-128.818054
38625.000000	-128.977173
38648.437500	-128.969559
38671.875000	-128.833069
38695.312500	-128.822723
38718.750000	-128.824860
38742.187500	-128.853195
38765.625000	-128.932877
38789.062500	-128.802292
38812.500000	-128.852676
38835.937500	-128.892212
38859.375000	-128.954636
38882.812500	-128.902313
38906.250000	-128.828552
38929.687500	-128.853500
38953.125000	-128.817947
38976.562500	-128.834686
39000.000000	-128.936295
39023.437500	-128.918320
39046.875000	-128.815414
39070.312500	-128.841324
39093.750000	-128.886398
39117.187500	-128.881882
39140.625000	-128.922180
39164.062500	-128.920197
39187.500000	-128.870255
39210.937500	-128.827744
39234.375000	-128.789368
39257.812500	-128.832169
39281.250000	-128.767929
39304.687500	-128.858246
39328.125000	-128.845413
39351.562500	-128.874222
39375.000000	-128.931366
39398.437500	-128.901672
39421.875000	-128.827301
39445.312500	-128.812241
39468.750000	-128.881348
39492.187500	-128.826202
39515.625000	-128.854980
39539.062500	-128.861404
39562.500000	-128.793442
39585.937500	-128.844055
39609.375000	-128.903549
39632.812500	-128.866714
39656.250000	-128.821472
39679.687500	-128.743225
39703.125000	-128.801651
39726.562500	-128.793396
39750.000000	-128.760574
39773.437500	-128.729294
39796.875000	-128.818237
39820.312500	-128.848526
39843.750000	-128.871094
39867.187500	-128.934464
39890.625000	-128.873993
39914.062500	-128.696930
39937.500000	-128.678192
39960.937500	-128.789429
39984.375000	-128.834229
40007.812500	-128.938980
40031.250000	-128.927017
40054.687500	-128.813507
40078.125000	-128.836487
40101.562500	-128.856583
40125.000000	-128.794861
40148.437500	-128.831238
40171.875000	-128.956543
40195.312500	-128.775482
40218.750000	-128.771713
40242.187500	-128.882172
40265.625000	-128.829376
40289.062500	-128.840408
40312.500000	-128.779877
40335.937500	-128.739822
40359.375000	-128.851318
40382.812500	-128.876541
40406.250000	-128.840240
40429.687500	-128.841110
40453.125000	-128.893356
40476.562500	-128.820099
40500.000000	-128.792892
40523.437500	-128.891922
40546.875000	-128.957047
40570.312500	-128.840042
40593.750000	-128.817795
40617.187500	-128.921356
40640.625000	-128.880630
40664.062500	-128.854645
40687.500000	-128.897568
40710.937500	-128.748352
40734.375000	-128.757507
40757.812500	-128.903107
40781.250000	-128.872772
40804.687500	-128.869583
40828.125000	-128.858353
40851.562500	-128.936874
40875.000000	-128.909805
40898.437500	-128.850204
40921.875000	-128.802917
40945.312500	-128.885223
40968.750000	-128.888351
40992.187500	-128.850494
41015.625000	-128.787308
41039.062500	-128.825073
41062.500000	-128.939301
41085.937500	-128.923553
41109.375000	-128.904053
41132.812500	-128.844376
41156.250000	-128.877365
41179.687500	-128.935120
41203.125000	-128.878647
41226.562500	-128.900146
41250.000000	-128.934448
41273.437500	-128.883194
41296.875000	-128.879059
41320.312500	-128.914261
41343.750000	-128.921326
41367.187500	-128.920883
41390.625000	-128.887024
41414.062500	-128.902863
41437.500000	-128.894028
41460.937500	-128.949051
41484.375000	-129.022354
41507.812500	-129.071426
41531.250000	-129.113510
41554.687500	-129.033463
41578.125000	-128.992813
41601.562500	-128.921417
41625.000000	-128.956421
41648.437500	-128.956406
41671.875000	-128.909180
41695.312500	-129.000687
41718.750000	-129.034988
41742.187500	-128.946854
41765.625000	-128.906158
41789.062500	-128.922806
41812.500000	-129.013916
41835.937500	-128.990768
41859.375000	-129.005035
41882.812500	-129.008667
41906.250000	-129.035324
41929.687500	-128.944839
41953.125000	-128.970718
41976.562500	-129.023254
42000.000000	-128.950317
42023.437500	-129.000046
42046.875000	-129.056305
42070.312500	-129.019211
42093.750000	-129.025650
42117.187500	-129.020416
42140.625000	-129.051971
42164.062500	-128.957092
42187.500000	-129.051392
42210.937500	-129.180878
42234.375000	-129.140350
42257.812500	-129.076782
42281.250000	-129.084579
42304.687500	-129.002197
42328.125000	-129.004532
42351.562500	-128.977066
42375.000000	-129.065094
42398.437500	-129.136185
42421.875000	-129.016861
42445.312500	-129.042679
42468.750000	-129.066223
42492.187500	-128.940598
42515.625000	-128.975494
42539.062500	-128.987411
42562.500000	-129.120773
42585.937500	-129.093445
42609.375000	-129.045197
42632.812500	-129.082504
42656.250000	-129.060226
42679.687500	-129.108353
42703.125000	-129.124908
42726.562500	-129.056046
42750.000000	-129.192108
42773.437500	-129.181412
42796.875000	-129.144760
42820.312500	-129.166534
42843.750000	-129.160080
42867.187500	-129.117661
42890.625000	-129.165756
42914.062500	-129.220840
42937.500000	-129.164276
42960.937500	-129.128830
42984.375000	-129.187256
43007.812500	-129.242050
43031.250000	-129.172684
43054.687500	-129.125565
43078.125000	-129.157898
43101.562500	-129.217453
43125.000000	-129.193451
43148.437500	-129.127304
43171.875000	-129.139343
43195.312500	-129.272064
43218.750000	-129.274261
43242.187500	-129.262589
43265.625000	-129.245010
43289.062500	-129.242859
43312.500000	-129.265076
43335.937500	-129.239639
43359.375000	-129.299896
43382.812500	-129.371368
43406.250000	-129.397125
43429.687500	-129.341278
43453.125000	-129.334091
43476.562500	-129.307999
43500.000000	-129.366272
43523.437500	-129.361649
43546.875000	-129.398376
43570.312500	-129.341782
43593.750000	-129.398026
43617.187500	-129.418060
43640.625000	-129.452347
43664.062500	-129.521439
43687.500000	-129.413345
43710.937500	-129.381424
43734.375000	-129.280380
43757.812500	-129.335617
43781.250000	-129.440903
43804.687500	-129.503128
43828.125000	-129.617111
43851.562500	-129.622223
43875.000000	-129.541214
43898.437500	-129.484695
43921.875000	-129.585556
43945.312500	-129.521164
43968.750000	-129.625565
43992.187500	-129.487518
44015.625000	-129.539337
44039.062500	-129.564423
44062.500000	-129.525894
44085.937500	-129.570618
44109.375000	-129.542435
44132.812500	-129.497162
44156.250000	-129.524994
44179.687500	-129.547729
44203.125000	-129.629700
44226.562500	-129.549667
44250.000000	-129.631180
44273.437500	-129.564911
44296.875000	-129.671799
44320.312500	-129.747177
44343.750000	-129.706024
44367.187500	-129.688370
44390.625000	-129.675552
44414.062500	-129.686493
44437.500000	-129.661224
44460.937500	-129.737869
44484.375000	-129.761536
44507.812500	-129.718216
44531.250000	-129.835800
44554.687500	-129.820145
44578.125000	-129.708969
44601.562500	-129.722427
44625.000000	-129.752594
44648.437500	-129.777588
44671.875000	-129.767044
44695.312500	-129.807953
44718.750000	-129.904083
44742.187500	-129.919312
44765.625000	-129.982956
44789.062500	-129.937485
44812.500000	-129.981110
44835.937500	-129.951523
44859.375000	-129.920563
44882.812500	-129.999619
44906.250000	-130.019836
44929.687500	-129.990997
44953.125000	-130.019470
44976.562500	-130.046570
45000.000000	-129.963333
45023.437500	-129.913651
45046.875000	-129.956085
45070.312500	-130.150375
45093.750000	-130.091156
45117.187500	-130.102707
45140.625000	-130.243149
45164.062500	-130.281113
45187.500000	-130.176346
45210.937500	-130.263016
45234.375000	-130.193283
45257.812500	-130.197144
45281.250000	-130.145691
45304.687500	-130.210815
45328.125000	-130.239319
45351.562500	-130.163742
45375.000000	-130.216034
45398.437500	-130.243011
45421.875000	-130.288132
45445.312500	-130.294556
45468.750000	-130.291931
45492.187500	-130.226501
45515.625000	-130.314514
45539.062500	-130.311569
45562.500000	-130.282578
45585.937500	-130.345871
45609.375000	-130.398682
45632.812500	-130.468658
45656.250000	-130.528412
45679.687500	-130.473251
45703.125000	-130.512253
45726.562500	-130.461349
45750.000000	-130.463699
45773.437500	-130.408325
45796.875000	-130.542557
45820.312500	-130.480927
45843.750000	-130.575485
45867.187500	-130.552963
45890.625000	-130.521973
45914.062500	-130.536423
45937.500000	-130.519852
45960.937500	-130.538437
45984.375000	-130.543289
46007.812500	-130.570602
46031.250000	-130.610611
46054.687500	-130.649155
46078.125000	-130.688568
46101.562500	-130.681061
46125.000000	-130.774490
46148.437500	-130.719467
46171.875000	-130.720779
46195.312500	-130.895386
46218.750000	-130.845139
46242.187500	-130.766052
46265.625000	-130.700729
46289.062500	-130.777115
46312.500000	-130.770142
46335.937500	-130.738647
46359.375000	-130.795349
46382.812500	-130.780975
46406.250000	-130.875229
46429.687500	-130.899353
46453.125000	-130.820953
46476.562500	-130.836014
46500.000000	-130.804596
46523.437500	-130.901215
46546.875000	-130.885925
46570.312500	-130.813004
46593.750000	-130.663544
46617.187500	-130.820312
46640.625000	-131.066208
46664.062500	-130.924988
46687.500000	-130.930984
46710.937500	-131.112350
46734.375000	-131.098175
46757.812500	-131.088699
46781.250000	-131.108673
46804.687500	-131.114731
46828.125000	-131.075516
46851.562500	-131.032867
46875.000000	-131.052032
46898.437500	-131.097031
46921.875000	-131.118866
46945.312500	-131.128372
46968.750000	-131.151199
46992.187500	-131.058350
47015.625000	-131.065308
47039.062500	-131.098572
47062.500000	-131.099243
47085.937500	-131.199646
47109.375000	-131.143341
47132.812500	-131.171371
47156.250000	-131.172272
47179.687500	-131.254761
47203.125000	-131.298859
47226.562500	-131.288055
47250.000000	-131.268753
47273.437500	-131.344070
47296.875000	-131.240158
47320.312500	-131.213242
47343.750000	-131.373917
47367.187500	-131.398987
47390.625000	-131.386398
47414.062500	-131.337204
47437.500000	-131.288345
47460.937500	-131.250534
47484.375000	-131.213806
47507.812500	-131.191254
47531.250000	-131.279144
47554.687500	-131.200226
47578.125000	-131.194717
47601.562500	-131.200745
47625.000000	-131.229462
47648.437500	-131.337234
47671.875000	-131.359146
47695.312500	-131.286240
47718.750000	-131.281326
47742.187500	-131.391632
47765.625000	-131.358887
47789.062500	-131.222443
47812.500000	-131.274384
47835.937500	-131.337372
47859.375000	-131.369019
47882.812500	-131.246521
47906.250000	-131.247406
47929.687500	-131.252914
47953.125000	-131.271713
47976.562500	-131.283737
