주파수 (Hz)	레벨 (dB)
23.437500	-98.335747
46.875000	-90.624954
70.312500	-78.145905
93.750000	-68.601746
117.187500	-63.882545
140.625000	-62.825783
164.062500	-61.887135
187.500000	-62.637444
210.937500	-59.452286
234.375000	-55.341389
257.812500	-57.050686
281.250000	-61.653927
304.687500	-62.810772
328.125000	-59.405872
351.562500	-60.428196
375.000000	-58.782719
398.437500	-58.681259
421.875000	-57.609249
445.312500	-63.421356
468.750000	-60.792839
492.187500	-59.152752
515.625000	-62.715282
539.062500	-66.523064
562.500000	-65.203407
585.937500	-67.616150
609.375000	-60.334705
632.812500	-58.642040
656.250000	-62.541985
679.687500	-65.807083
703.125000	-72.243851
726.562500	-69.292313
750.000000	-67.799171
773.437500	-73.218437
796.875000	-73.598038
820.312500	-65.442078
843.750000	-65.080650
867.187500	-75.478050
890.625000	-79.888794
914.062500	-74.281609
937.500000	-69.165634
960.937500	-66.407227
984.375000	-58.928593
1007.812500	-61.925652
1031.250000	-75.407379
1054.687500	-74.633171
1078.125000	-80.334999
1101.562500	-75.750153
1125.000000	-75.490166
1148.437500	-82.510941
1171.875000	-78.948456
1195.312500	-80.356049
1218.750000	-71.936882
1242.187500	-63.406338
1265.625000	-65.096718
1289.062500	-73.200188
1312.500000	-64.256485
1335.937500	-65.242653
1359.375000	-77.968681
1382.812500	-81.748428
1406.250000	-79.939758
1429.687500	-83.311440
1453.125000	-79.478210
1476.562500	-68.661972
1500.000000	-68.313667
1523.437500	-79.478203
1546.875000	-83.319344
1570.312500	-78.394272
1593.750000	-80.412346
1617.187500	-84.193733
1640.625000	-79.755234
1664.062500	-73.383919
1687.500000	-73.840187
1710.937500	-84.062454
1734.375000	-85.450417
1757.812500	-86.791901
1781.250000	-94.581055
1804.687500	-97.468033
1828.125000	-96.656906
1851.562500	-89.210938
1875.000000	-81.661819
1898.437500	-84.667290
1921.875000	-97.166420
1945.312500	-96.194534
1968.750000	-84.898460
1992.187500	-78.393860
2015.625000	-82.109184
2039.062500	-98.235512
2062.500000	-98.958366
2085.937500	-95.810173
2109.375000	-90.497520
2132.812500	-92.498878
2156.250000	-101.502625
2179.687500	-101.176430
2203.125000	-97.687157
2226.562500	-93.779930
2250.000000	-91.549332
2273.437500	-98.422546
2296.875000	-104.385681
2320.312500	-101.753998
2343.750000	-95.696640
2367.187500	-93.433540
2390.625000	-96.409393
2414.062500	-103.053337
2437.500000	-105.490311
2460.937500	-104.587517
2484.375000	-97.270859
2507.812500	-89.499275
2531.250000	-90.483269
2554.687500	-101.275612
2578.125000	-106.423958
2601.562500	-106.158440
2625.000000	-104.470581
2648.437500	-97.008835
2671.875000	-93.150230
2695.312500	-98.252098
2718.750000	-106.140396
2742.187500	-105.769478
2765.625000	-103.460014
2789.062500	-101.512596
2812.500000	-94.760124
2835.937500	-93.593216
2859.375000	-99.444557
2882.812500	-108.078354
2906.250000	-108.326965
2929.687500	-105.866661
2953.125000	-98.420387
2976.562500	-93.385880
3000.000000	-88.700890
3023.437500	-91.865433
3046.875000	-103.440025
3070.312500	-109.547340
3093.750000	-109.079445
3117.187500	-108.836205
3140.625000	-105.728401
3164.062500	-100.574669
3187.500000	-99.209549
3210.937500	-97.604156
3234.375000	-104.414116
3257.812500	-110.880821
3281.250000	-110.451859
3304.687500	-106.080544
3328.125000	-98.506233
3351.562500	-94.447998
3375.000000	-93.757759
3398.437500	-99.432198
3421.875000	-109.583832
3445.312500	-115.360321
3468.750000	-116.744904
3492.187500	-115.471497
3515.625000	-109.796165
3539.062500	-105.586761
3562.500000	-110.350197
3585.937500	-113.466957
3609.375000	-111.489754
3632.812500	-112.620773
3656.250000	-116.424858
3679.687500	-115.964127
3703.125000	-114.454155
3726.562500	-112.729568
3750.000000	-105.053200
3773.437500	-96.517906
3796.875000	-97.511780
3820.312500	-100.731071
3843.750000	-103.491051
3867.187500	-111.081673
3890.625000	-114.627617
3914.062500	-114.396194
3937.500000	-114.688232
3960.937500	-113.987434
3984.375000	-110.301849
4007.812500	-106.565331
4031.250000	-101.633865
4054.687500	-96.369354
4078.125000	-100.327766
4101.562500	-115.317062
4125.000000	-119.179321
4148.437500	-117.958092
4171.875000	-114.712967
4195.312500	-112.293816
4218.750000	-109.812485
4242.187500	-103.398132
4265.625000	-104.030418
4289.062500	-112.393372
4312.500000	-113.276634
4335.937500	-111.268394
4359.375000	-114.829033
4382.812500	-117.018082
4406.250000	-119.112762
4429.687500	-119.478981
4453.125000	-119.670471
4476.562500	-114.850830
4500.000000	-112.697533
4523.437500	-114.645866
4546.875000	-103.761444
4570.312500	-97.361107
4593.750000	-101.471588
4617.187500	-114.534561
4640.625000	-119.925056
4664.062500	-121.224701
4687.500000	-121.236862
4710.937500	-118.279251
4734.375000	-112.839104
4757.812500	-103.955948
4781.250000	-104.589775
4804.687500	-112.356903
4828.125000	-118.976547
4851.562500	-121.480751
4875.000000	-121.631676
4898.437500	-121.353806
4921.875000	-119.148720
4945.312500	-119.890358
4968.750000	-121.518250
4992.187500	-121.078613
5015.625000	-121.066505
5039.062500	-119.295982
5062.500000	-111.749535
5085.937500	-105.215736
5109.375000	-105.179626
5132.812500	-105.592560
5156.250000	-105.448212
5179.687500	-109.227570
5203.125000	-116.032280
5226.562500	-118.777321
5250.000000	-120.834091
5273.437500	-121.733696
5296.875000	-123.127304
5320.312500	-123.201668
5343.750000	-122.682251
5367.187500	-119.172905
5390.625000	-112.087631
5414.062500	-111.897484
5437.500000	-118.022079
5460.937500	-119.607613
5484.375000	-113.997047
5507.812500	-115.376343
5531.250000	-121.101929
5554.687500	-120.044510
5578.125000	-121.575851
5601.562500	-122.968552
5625.000000	-123.620422
5648.437500	-123.642410
5671.875000	-123.455467
5695.312500	-123.798996
5718.750000	-123.950836
5742.187500	-123.730408
5765.625000	-123.791641
5789.062500	-123.834343
5812.500000	-123.887535
5835.937500	-124.860428
5859.375000	-125.523232
5882.812500	-124.708504
5906.250000	-123.588623
5929.687500	-124.015327
5953.125000	-125.785500
5976.562500	-125.659721
6000.000000	-124.636925
6023.437500	-124.389023
6046.875000	-122.855545
6070.312500	-115.139038
6093.750000	-109.705444
6117.187500	-113.872047
6140.625000	-118.108276
6164.062500	-112.808472
6187.500000	-113.829391
6210.937500	-113.890541
6234.375000	-112.225517
6257.812500	-118.440079
6281.250000	-122.126686
6304.687500	-123.208527
6328.125000	-125.515594
6351.562500	-125.647881
6375.000000	-125.742027
6398.437500	-126.241241
6421.875000	-126.493698
6445.312500	-125.950455
6468.750000	-125.371391
6492.187500	-124.467216
6515.625000	-124.308571
6539.062500	-125.216942
6562.500000	-125.836029
6585.937500	-125.970703
6609.375000	-125.556351
6632.812500	-125.920326
6656.250000	-126.577370
6679.687500	-126.530121
6703.125000	-126.442078
6726.562500	-126.270569
6750.000000	-126.702614
6773.437500	-126.579994
6796.875000	-126.626999
6820.312500	-126.877609
6843.750000	-126.761757
6867.187500	-126.072380
6890.625000	-123.619682
6914.062500	-122.602905
6937.500000	-123.180298
6960.937500	-124.911743
6984.375000	-124.274239
7007.812500	-122.964478
7031.250000	-122.822678
7054.687500	-124.199425
7078.125000	-120.259796
7101.562500	-121.999771
7125.000000	-125.887390
7148.437500	-126.114655
7171.875000	-126.519188
7195.312500	-126.457253
7218.750000	-126.359779
7242.187500	-126.314728
7265.625000	-125.634109
7289.062500	-124.228477
7312.500000	-123.146118
7335.937500	-124.265602
7359.375000	-126.713615
7382.812500	-126.853073
7406.250000	-126.288292
7429.687500	-126.338356
7453.125000	-127.000763
7476.562500	-126.984467
7500.000000	-126.793694
7523.437500	-126.529633
7546.875000	-127.153275
7570.312500	-126.868889
7593.750000	-126.489105
7617.187500	-125.425278
7640.625000	-126.172188
7664.062500	-127.202003
7687.500000	-127.301758
7710.937500	-126.890427
7734.375000	-126.586441
7757.812500	-127.114868
7781.250000	-127.268661
7804.687500	-127.109673
7828.125000	-127.116798
7851.562500	-126.357513
7875.000000	-124.117676
7898.437500	-124.094543
7921.875000	-125.880089
7945.312500	-126.231514
7968.750000	-123.000732
7992.187500	-118.299141
8015.625000	-118.445473
8039.062500	-124.892181
8062.500000	-126.547523
8085.937500	-126.921082
8109.375000	-126.812675
8132.812500	-127.014496
8156.250000	-127.274269
8179.687500	-127.631042
8203.125000	-127.685661
8226.562500	-127.739571
8250.000000	-127.673477
8273.437500	-127.420303
8296.875000	-127.517876
8320.312500	-127.331146
8343.750000	-127.198013
8367.187500	-127.569061
8390.625000	-127.602097
8414.062500	-127.291626
8437.500000	-127.038712
8460.937500	-127.064476
8484.375000	-126.516037
8507.812500	-127.056107
8531.250000	-127.753708
8554.687500	-127.750740
8578.125000	-127.771820
8601.562500	-127.860954
8625.000000	-127.845787
8648.437500	-127.897675
8671.875000	-127.837502
8695.312500	-127.627747
8718.750000	-127.364967
8742.187500	-127.391022
8765.625000	-127.595268
8789.062500	-127.580841
8812.500000	-127.449738
8835.937500	-127.487198
8859.375000	-127.304802
8882.812500	-127.279694
8906.250000	-127.255753
8929.687500	-126.860977
8953.125000	-127.080429
8976.562500	-126.234810
9000.000000	-124.648369
9023.437500	-125.605553
9046.875000	-127.475166
9070.312500	-127.780159
9093.750000	-127.241287
9117.187500	-126.895592
9140.625000	-127.668427
9164.062500	-127.982483
9187.500000	-127.995575
9210.937500	-128.160034
9234.375000	-128.001495
9257.812500	-127.721672
9281.250000	-127.483070
9304.687500	-127.461868
9328.125000	-127.866241
9351.562500	-128.249298
9375.000000	-128.232895
9398.437500	-128.056351
9421.875000	-128.023682
9445.312500	-128.048035
9468.750000	-127.774124
9492.187500	-127.638680
9515.625000	-128.017471
9539.062500	-128.034256
9562.500000	-127.767494
9585.937500	-127.904381
9609.375000	-127.985275
9632.812500	-127.859787
9656.250000	-127.714790
9679.687500	-125.531189
9703.125000	-123.876549
9726.562500	-124.322784
9750.000000	-125.734749
9773.437500	-127.829742
9796.875000	-128.237915
9820.312500	-128.266754
9843.750000	-127.926239
9867.187500	-128.042725
9890.625000	-128.408798
9914.062500	-128.401337
9937.500000	-128.355682
9960.937500	-128.320526
9984.375000	-128.243820
10007.812500	-126.789459
10031.250000	-126.692078
10054.687500	-128.115479
10078.125000	-128.298233
10101.562500	-128.356339
10125.000000	-128.432480
10148.437500	-128.399078
10171.875000	-128.242294
10195.312500	-128.494278
10218.750000	-128.462906
10242.187500	-128.406723
10265.625000	-128.317444
10289.062500	-128.283585
10312.500000	-128.084610
10335.937500	-128.075958
10359.375000	-128.363922
10382.812500	-128.369537
10406.250000	-128.434982
10429.687500	-128.628326
10453.125000	-128.694473
10476.562500	-128.691605
10500.000000	-128.477783
10523.437500	-128.583084
10546.875000	-128.478836
10570.312500	-128.469788
10593.750000	-128.466614
10617.187500	-128.607193
10640.625000	-128.641113
10664.062500	-128.691422
10687.500000	-128.708694
10710.937500	-128.567993
10734.375000	-128.439987
10757.812500	-128.425125
10781.250000	-128.368881
10804.687500	-128.466980
10828.125000	-128.574661
10851.562500	-128.605057
10875.000000	-128.660995
10898.437500	-128.587357
10921.875000	-128.404572
10945.312500	-128.238617
10968.750000	-127.978607
10992.187500	-128.105881
11015.625000	-128.120621
11039.062500	-128.448196
11062.500000	-128.281479
11085.937500	-128.435455
11109.375000	-128.585556
11132.812500	-128.507584
11156.250000	-128.361191
11179.687500	-128.263123
11203.125000	-128.566452
11226.562500	-128.685226
11250.000000	-128.732224
11273.437500	-128.634903
11296.875000	-128.626328
11320.312500	-128.701965
11343.750000	-128.692947
11367.187500	-128.732208
11390.625000	-128.635941
11414.062500	-128.470551
11437.500000	-128.444000
11460.937500	-128.675217
11484.375000	-128.796936
11507.812500	-128.826401
11531.250000	-128.780212
11554.687500	-128.723251
11578.125000	-128.708405
11601.562500	-128.682358
11625.000000	-128.772202
11648.437500	-128.832703
11671.875000	-128.791092
11695.312500	-128.763947
11718.750000	-128.616989
11742.187500	-128.711746
11765.625000	-128.725143
11789.062500	-128.723663
11812.500000	-128.640137
11835.937500	-128.659042
11859.375000	-128.666504
11882.812500	-128.598236
11906.250000	-128.347153
11929.687500	-128.632675
11953.125000	-128.911148
11976.562500	-128.705963
12000.000000	-128.603058
12023.437500	-128.823563
12046.875000	-128.798889
12070.312500	-128.804047
12093.750000	-128.917267
12117.187500	-128.917206
12140.625000	-128.979233
12164.062500	-128.930573
12187.500000	-128.757507
12210.937500	-128.707550
12234.375000	-128.927048
12257.812500	-128.809525
12281.250000	-128.698044
12304.687500	-128.696350
12328.125000	-128.772171
12351.562500	-128.789474
12375.000000	-128.627594
12398.437500	-128.718903
12421.875000	-128.697876
12445.312500	-128.743988
12468.750000	-128.722580
12492.187500	-128.883835
12515.625000	-128.891937
12539.062500	-128.817017
12562.500000	-128.847397
12585.937500	-128.885818
12609.375000	-128.732727
12632.812500	-128.826828
12656.250000	-128.913254
12679.687500	-128.950165
12703.125000	-128.915512
12726.562500	-128.841949
12750.000000	-128.958221
12773.437500	-128.767883
12796.875000	-128.803268
12820.312500	-128.728149
12843.750000	-128.733215
12867.187500	-128.804993
12890.625000	-128.972473
12914.062500	-128.909592
12937.500000	-128.905411
12960.937500	-128.997009
12984.375000	-128.979980
13007.812500	-128.948685
13031.250000	-128.901505
13054.687500	-128.997574
13078.125000	-129.055801
13101.562500	-128.998520
13125.000000	-128.857559
13148.437500	-128.850494
13171.875000	-128.688141
13195.312500	-128.831665
13218.750000	-128.829086
13242.187500	-128.780579
13265.625000	-128.885864
13289.062500	-129.072830
13312.500000	-129.082077
13335.937500	-128.940262
13359.375000	-128.846588
13382.812500	-128.697754
13406.250000	-128.771194
13429.687500	-129.035934
13453.125000	-129.048492
13476.562500	-128.996582
13500.000000	-128.859192
13523.437500	-128.878860
13546.875000	-128.861130
13570.312500	-128.799896
13593.750000	-128.830368
13617.187500	-128.777161
13640.625000	-128.767990
13664.062500	-128.926636
13687.500000	-128.887726
13710.937500	-128.939224
13734.375000	-128.993958
13757.812500	-129.050064
13781.250000	-129.079529
13804.687500	-129.002090
13828.125000	-129.036575
13851.562500	-128.978027
13875.000000	-128.941452
13898.437500	-128.942535
13921.875000	-128.909027
13945.312500	-128.907593
13968.750000	-128.766479
13992.187500	-128.879898
14015.625000	-128.843842
14039.062500	-128.855331
14062.500000	-128.899521
14085.937500	-128.939362
14109.375000	-128.905701
14132.812500	-129.023972
14156.250000	-129.016510
14179.687500	-129.033630
14203.125000	-129.033661
14226.562500	-129.043243
14250.000000	-128.934158
14273.437500	-129.046997
14296.875000	-129.086472
14320.312500	-128.993805
14343.750000	-129.058884
14367.187500	-128.863464
14390.625000	-128.952438
14414.062500	-128.954742
14437.500000	-128.888031
14460.937500	-128.962341
14484.375000	-129.033829
14507.812500	-129.016541
14531.250000	-129.053558
14554.687500	-129.092636
14578.125000	-129.072128
14601.562500	-129.173340
14625.000000	-129.137497
14648.437500	-129.107529
14671.875000	-129.170334
14695.312500	-129.061050
14718.750000	-129.063538
14742.187500	-129.070053
14765.625000	-128.948318
14789.062500	-128.943405
14812.500000	-129.008774
14835.937500	-129.013412
14859.375000	-129.038162
14882.812500	-128.957458
14906.250000	-128.993668
14929.687500	-129.071259
14953.125000	-129.070648
14976.562500	-129.123123
15000.000000	-129.062622
15023.437500	-129.152786
15046.875000	-129.050476
15070.312500	-129.038284
15093.750000	-129.116425
15117.187500	-129.094910
15140.625000	-129.088058
15164.062500	-129.078171
15187.500000	-129.019424
15210.937500	-129.014191
15234.375000	-129.169083
15257.812500	-129.109604
15281.250000	-129.149902
15304.687500	-129.078445
15328.125000	-129.143356
15351.562500	-129.153961
15375.000000	-129.108459
15398.437500	-129.131271
15421.875000	-129.150665
15445.312500	-129.112152
15468.750000	-129.083298
15492.187500	-129.127930
15515.625000	-129.221817
15539.062500	-129.194519
15562.500000	-128.918121
15585.937500	-128.999771
15609.375000	-129.081345
15632.812500	-129.060272
15656.250000	-129.107010
15679.687500	-129.156174
15703.125000	-129.158401
15726.562500	-129.033722
15750.000000	-129.089172
15773.437500	-129.106171
15796.875000	-129.087143
15820.312500	-129.161942
15843.750000	-129.223206
15867.187500	-129.174667
15890.625000	-129.090393
15914.062500	-129.054230
15937.500000	-129.126633
15960.937500	-128.976410
15984.375000	-129.023071
16007.812500	-129.056824
16031.250000	-128.928925
16054.687500	-129.064453
16078.125000	-129.072845
16101.562500	-129.050262
16125.000000	-129.183533
16148.437500	-129.203400
16171.875000	-129.179749
16195.312500	-129.149811
16218.750000	-129.095078
16242.187500	-129.191650
16265.625000	-129.166229
16289.062500	-129.066849
16312.500000	-129.055481
16335.937500	-129.096069
16359.375000	-129.019211
16382.812500	-128.964783
16406.250000	-129.122986
16429.687500	-129.030258
16453.125000	-129.051849
16476.562500	-129.154388
16500.000000	-128.975571
16523.437500	-129.143082
16546.875000	-129.219391
16570.312500	-129.239471
16593.750000	-129.154221
16617.187500	-129.098831
16640.625000	-129.114334
16664.062500	-129.129410
16687.500000	-129.062561
16710.937500	-129.010971
16734.375000	-129.230225
16757.812500	-129.255066
16781.250000	-129.130188
16804.687500	-129.067932
16828.125000	-128.952850
16851.562500	-129.053024
16875.000000	-129.124252
16898.437500	-129.067673
16921.875000	-129.077866
16945.312500	-129.129059
16968.750000	-129.258789
16992.187500	-129.261612
17015.625000	-129.215775
17039.062500	-129.145935
17062.500000	-129.148560
17085.937500	-129.146912
17109.375000	-129.133911
17132.812500	-129.114990
17156.250000	-129.019333
17179.687500	-129.138275
17203.125000	-129.226990
17226.562500	-129.124908
17250.000000	-129.112274
17273.437500	-129.237030
17296.875000	-129.215027
17320.312500	-129.122330
17343.750000	-129.126907
17367.187500	-129.175598
17390.625000	-129.139832
17414.062500	-129.127991
17437.500000	-129.138336
17460.937500	-129.112335
17484.375000	-129.117935
17507.812500	-129.167892
17531.250000	-129.157822
17554.687500	-129.112427
17578.125000	-129.128128
17601.562500	-129.093735
17625.000000	-129.070984
17648.437500	-129.109711
17671.875000	-129.163086
17695.312500	-129.180084
17718.750000	-129.144043
17742.187500	-129.232956
17765.625000	-129.262192
17789.062500	-129.158798
17812.500000	-129.193253
17835.937500	-129.139252
17859.375000	-129.069901
17882.812500	-128.984756
17906.250000	-129.065308
17929.687500	-129.085464
17953.125000	-128.986938
17976.562500	-128.988968
18000.000000	-128.844025
18023.437500	-129.022949
18046.875000	-129.135941
18070.312500	-129.195053
18093.750000	-129.119583
18117.187500	-129.172836
18140.625000	-129.301712
18164.062500	-129.109070
18187.500000	-129.075882
18210.937500	-129.195541
18234.375000	-129.199524
18257.812500	-129.113083
18281.250000	-129.066055
18304.687500	-129.083984
18328.125000	-129.071243
18351.562500	-129.163345
18375.000000	-129.278473
18398.437500	-129.163055
18421.875000	-129.202377
18445.312500	-129.082199
18468.750000	-129.023743
18492.187500	-129.129227
18515.625000	-129.173676
18539.062500	-129.196564
18562.500000	-129.108231
18585.937500	-129.128098
18609.375000	-129.072128
18632.812500	-128.943314
18656.250000	-128.956131
18679.687500	-128.917877
18703.125000	-128.941132
18726.562500	-128.941513
18750.000000	-128.970276
18773.437500	-129.029373
18796.875000	-129.028976
18820.312500	-129.007935
18843.750000	-129.022171
18867.187500	-129.079712
18890.625000	-129.110535
18914.062500	-129.136368
18937.500000	-129.156540
18960.937500	-129.106308
18984.375000	-129.067169
19007.812500	-129.002762
19031.250000	-128.936371
19054.687500	-128.816879
19078.125000	-128.289322
19101.562500	-127.948120
19125.000000	-127.228302
19148.437500	-126.331810
19171.875000	-125.007484
19195.312500	-124.936623
19218.750000	-126.359047
19242.187500	-126.900948
19265.625000	-127.028992
19289.062500	-127.464554
19312.500000	-127.375336
19335.937500	-127.756744
19359.375000	-128.180801
19382.812500	-128.349777
19406.250000	-128.166794
19429.687500	-128.511200
19453.125000	-128.835037
19476.562500	-128.799026
19500.000000	-128.615540
19523.437500	-128.859787
19546.875000	-128.975540
19570.312500	-128.981201
19593.750000	-128.932022
19617.187500	-128.962936
19640.625000	-129.029297
19664.062500	-128.913986
19687.500000	-128.951019
19710.937500	-129.034439
19734.375000	-129.080139
19757.812500	-129.028473
19781.250000	-128.963135
19804.687500	-129.005234
19828.125000	-129.140442
19851.562500	-129.101120
19875.000000	-128.966568
19898.437500	-128.988541
19921.875000	-129.111328
19945.312500	-129.102509
19968.750000	-129.089493
19992.187500	-129.141159
20015.625000	-129.010284
20039.062500	-129.017410
20062.500000	-129.163376
20085.937500	-129.109207
20109.375000	-128.923553
20132.812500	-128.261108
20156.250000	-128.793869
20179.687500	-129.036774
20203.125000	-129.011902
20226.562500	-129.003036
20250.000000	-129.027786
20273.437500	-129.019348
20296.875000	-129.080582
20320.312500	-129.157684
20343.750000	-129.128265
20367.187500	-129.083099
20390.625000	-129.161423
20414.062500	-129.144440
20437.500000	-129.138550
20460.937500	-129.202225
20484.375000	-129.211349
20507.812500	-129.082764
20531.250000	-129.111282
20554.687500	-129.103073
20578.125000	-129.020523
20601.562500	-129.035751
20625.000000	-129.162109
20648.437500	-129.087128
20671.875000	-129.138916
20695.312500	-129.105621
20718.750000	-129.154800
20742.187500	-129.213409
20765.625000	-129.053207
20789.062500	-129.113892
20812.500000	-129.021912
20835.937500	-129.005417
20859.375000	-129.085495
20882.812500	-129.104630
20906.250000	-129.162064
20929.687500	-129.113373
20953.125000	-129.053452
20976.562500	-129.016006
21000.000000	-128.882050
21023.437500	-128.975098
21046.875000	-129.064392
21070.312500	-129.169876
21093.750000	-129.148804
21117.187500	-129.089569
21140.625000	-129.054138
21164.062500	-129.091812
21187.500000	-129.140396
21210.937500	-129.084183
21234.375000	-129.152023
21257.812500	-129.160690
21281.250000	-129.081772
21304.687500	-129.066635
21328.125000	-129.077667
21351.562500	-129.151474
21375.000000	-129.082809
21398.437500	-129.117981
21421.875000	-129.130814
21445.312500	-129.153076
21468.750000	-129.182449
21492.187500	-129.106003
21515.625000	-129.083679
21539.062500	-129.152557
21562.500000	-129.118103
21585.937500	-129.152618
21609.375000	-129.137573
21632.812500	-129.142517
21656.250000	-129.150635
21679.687500	-129.153793
21703.125000	-129.151993
21726.562500	-129.192444
21750.000000	-129.156494
21773.437500	-129.077286
21796.875000	-129.134048
21820.312500	-129.085114
21843.750000	-129.046112
21867.187500	-129.049484
21890.625000	-129.069916
21914.062500	-129.021942
21937.500000	-129.092575
21960.937500	-129.180710
21984.375000	-129.103226
22007.812500	-129.043457
22031.250000	-129.088425
22054.687500	-129.068390
22078.125000	-129.138550
22101.562500	-129.176865
22125.000000	-129.045731
22148.437500	-128.962189
22171.875000	-128.896729
22195.312500	-128.846603
22218.750000	-128.879166
22242.187500	-128.912506
22265.625000	-128.861557
22289.062500	-128.764145
22312.500000	-128.839249
22335.937500	-128.845688
22359.375000	-128.875519
22382.812500	-128.913452
22406.250000	-128.941071
22429.687500	-129.076996
22453.125000	-129.033737
22476.562500	-128.928696
22500.000000	-128.955811
22523.437500	-129.016205
22546.875000	-128.939590
22570.312500	-129.077255
22593.750000	-129.059082
22617.187500	-128.994537
22640.625000	-128.933823
22664.062500	-128.981522
22687.500000	-128.934265
22710.937500	-128.908676
22734.375000	-128.923248
22757.812500	-128.851273
22781.250000	-128.977417
22804.687500	-128.954910
22828.125000	-128.961533
22851.562500	-128.901413
22875.000000	-128.797668
22898.437500	-128.976715
22921.875000	-129.076279
22945.312500	-129.007507
22968.750000	-129.024887
22992.187500	-129.041260
23015.625000	-129.052353
23039.062500	-128.960068
23062.500000	-128.952240
23085.937500	-128.905167
23109.375000	-128.917175
23132.812500	-128.928177
23156.250000	-128.906158
23179.687500	-129.087387
23203.125000	-129.038681
23226.562500	-129.091705
23250.000000	-129.092072
23273.437500	-128.937744
23296.875000	-128.959183
23320.312500	-129.022888
23343.750000	-129.060974
23367.187500	-129.225021
23390.625000	-129.123474
23414.062500	-129.101135
23437.500000	-129.125412
23460.937500	-129.157120
23484.375000	-129.087906
23507.812500	-128.963287
23531.250000	-128.922958
23554.687500	-128.951813
23578.125000	-128.985596
23601.562500	-129.066299
23625.000000	-129.056595
23648.437500	-128.930679
23671.875000	-128.850067
23695.312500	-129.005798
23718.750000	-129.042419
23742.187500	-129.071213
23765.625000	-129.084534
23789.062500	-129.160889
23812.500000	-129.142349
23835.937500	-129.104919
23859.375000	-129.192688
23882.812500	-129.111038
23906.250000	-129.015411
23929.687500	-129.031006
23953.125000	-128.976944
23976.562500	-129.019196
24000.000000	-128.963150
24023.437500	-129.055344
24046.875000	-129.087189
24070.312500	-129.010422
24093.750000	-128.986359
24117.187500	-128.994919
24140.625000	-129.063400
24164.062500	-129.144287
24187.500000	-129.088272
24210.937500	-129.044968
24234.375000	-129.003662
24257.812500	-128.986633
24281.250000	-129.054810
24304.687500	-128.973572
24328.125000	-129.042755
24351.562500	-128.951630
24375.000000	-129.031662
24398.437500	-129.001266
24421.875000	-128.992142
24445.312500	-129.085510
24468.750000	-129.067108
24492.187500	-129.015137
24515.625000	-128.939865
24539.062500	-129.071274
24562.500000	-129.006958
24585.937500	-128.898346
24609.375000	-128.947128
24632.812500	-129.039154
24656.250000	-128.949814
24679.687500	-128.891617
24703.125000	-128.907776
24726.562500	-128.956406
24750.000000	-128.936493
24773.437500	-129.059921
24796.875000	-129.071198
24820.312500	-129.079117
24843.750000	-128.989120
24867.187500	-128.966248
24890.625000	-128.981812
24914.062500	-128.999268
24937.500000	-128.889786
24960.937500	-128.819214
24984.375000	-128.843262
25007.812500	-128.881714
25031.250000	-128.775833
25054.687500	-128.865082
25078.125000	-128.847778
25101.562500	-128.823944
25125.000000	-128.934250
25148.437500	-128.986877
25171.875000	-129.044724
25195.312500	-129.043564
25218.750000	-129.010147
25242.187500	-128.907883
25265.625000	-128.922745
25289.062500	-129.012833
25312.500000	-129.057571
25335.937500	-129.065491
25359.375000	-128.963669
25382.812500	-128.870834
25406.250000	-128.971146
25429.687500	-128.952057
25453.125000	-128.988312
25476.562500	-129.073166
25500.000000	-129.001892
25523.437500	-128.919983
25546.875000	-128.950699
25570.312500	-128.987930
25593.750000	-129.033615
25617.187500	-129.067230
25640.625000	-129.078766
25664.062500	-129.020111
25687.500000	-128.996582
25710.937500	-128.967880
25734.375000	-128.960419
25757.812500	-128.996399
25781.250000	-128.908218
25804.687500	-128.969589
25828.125000	-129.063980
25851.562500	-129.056213
25875.000000	-129.060699
25898.437500	-128.953461
25921.875000	-129.018600
25945.312500	-128.947296
25968.750000	-128.952393
25992.187500	-128.900162
26015.625000	-128.960693
26039.062500	-128.995926
26062.500000	-128.987198
26085.937500	-128.919403
26109.375000	-129.060577
26132.812500	-129.123001
26156.250000	-129.106033
26179.687500	-129.005386
26203.125000	-128.956909
26226.562500	-128.953140
26250.000000	-129.032364
26273.437500	-128.992111
26296.875000	-129.015106
26320.312500	-128.983566
26343.750000	-128.831970
26367.187500	-128.904984
26390.625000	-128.958847
26414.062500	-128.998917
26437.500000	-128.992981
26460.937500	-128.985840
26484.375000	-128.978577
26507.812500	-128.989944
26531.250000	-128.937881
26554.687500	-129.017273
26578.125000	-129.005386
26601.562500	-129.015930
26625.000000	-128.936050
26648.437500	-128.905716
26671.875000	-128.985077
26695.312500	-129.032959
26718.750000	-128.994156
26742.187500	-128.924652
26765.625000	-128.936951
26789.062500	-128.946243
26812.500000	-128.966476
26835.937500	-128.900833
26859.375000	-128.926300
26882.812500	-128.974091
26906.250000	-128.962692
26929.687500	-128.936798
26953.125000	-128.867340
26976.562500	-128.936234
27000.000000	-129.009430
27023.437500	-128.974213
27046.875000	-128.972275
27070.312500	-128.908066
27093.750000	-128.888275
27117.187500	-128.958771
27140.625000	-128.965714
27164.062500	-128.985352
27187.500000	-128.969864
27210.937500	-128.943024
27234.375000	-128.999878
27257.812500	-129.024734
27281.250000	-128.957382
27304.687500	-128.953033
27328.125000	-129.001678
27351.562500	-129.033905
27375.000000	-128.993317
27398.437500	-129.034698
27421.875000	-129.053726
27445.312500	-128.952194
27468.750000	-128.935989
27492.187500	-128.969955
27515.625000	-128.962418
27539.062500	-128.963974
27562.500000	-128.948196
27585.937500	-128.942596
27609.375000	-128.925735
27632.812500	-129.011856
27656.250000	-128.996399
27679.687500	-128.953629
27703.125000	-128.975891
27726.562500	-129.023941
27750.000000	-128.992752
27773.437500	-128.825363
27796.875000	-128.903976
27820.312500	-128.995560
27843.750000	-129.015442
27867.187500	-128.942719
27890.625000	-128.884338
27914.062500	-128.836212
27937.500000	-128.751541
27960.937500	-128.720551
27984.375000	-128.829132
28007.812500	-128.844666
28031.250000	-128.846237
28054.687500	-128.855103
28078.125000	-128.906128
28101.562500	-128.903503
28125.000000	-128.795547
28148.437500	-128.784637
28171.875000	-128.716110
28195.312500	-128.773834
28218.750000	-128.929306
28242.187500	-128.987442
28265.625000	-128.915771
28289.062500	-128.942612
28312.500000	-128.824341
28335.937500	-128.866913
28359.375000	-128.899612
28382.812500	-128.881226
28406.250000	-128.925018
28429.687500	-128.987152
28453.125000	-129.056702
28476.562500	-128.888931
28500.000000	-128.841843
28523.437500	-128.913574
28546.875000	-129.037674
28570.312500	-129.004257
28593.750000	-129.045410
28617.187500	-128.969116
28640.625000	-128.860336
28664.062500	-128.864166
28687.500000	-128.932053
28710.937500	-128.922241
28734.375000	-128.936279
28757.812500	-128.959061
28781.250000	-128.945084
28804.687500	-129.004990
28828.125000	-128.974411
28851.562500	-128.981277
28875.000000	-129.010437
28898.437500	-129.003235
28921.875000	-128.908493
28945.312500	-128.965652
28968.750000	-128.964874
28992.187500	-129.021805
29015.625000	-128.959320
29039.062500	-128.965912
29062.500000	-128.971512
29085.937500	-128.961639
29109.375000	-128.974854
29132.812500	-128.941269
29156.250000	-128.890167
29179.687500	-129.002197
29203.125000	-129.035126
29226.562500	-128.957413
29250.000000	-128.997864
29273.437500	-128.896271
29296.875000	-128.862640
29320.312500	-128.893951
29343.750000	-128.881516
29367.187500	-128.924423
29390.625000	-128.988678
29414.062500	-128.968506
29437.500000	-128.835144
29460.937500	-128.814178
29484.375000	-128.816010
29507.812500	-128.840118
29531.250000	-128.837112
29554.687500	-128.924332
29578.125000	-128.924286
29601.562500	-128.837341
29625.000000	-128.882767
29648.437500	-128.963348
29671.875000	-128.852325
29695.312500	-128.882019
29718.750000	-128.892868
29742.187500	-128.848068
29765.625000	-128.852173
29789.062500	-128.840836
29812.500000	-128.815781
29835.937500	-128.749496
29859.375000	-128.708008
29882.812500	-128.768448
29906.250000	-128.831512
29929.687500	-128.884827
29953.125000	-128.873062
29976.562500	-128.918884
30000.000000	-128.793747
30023.437500	-128.788223
30046.875000	-128.845169
30070.312500	-128.931305
30093.750000	-128.904617
30117.187500	-128.898972
30140.625000	-128.884933
30164.062500	-128.912292
30187.500000	-128.942810
30210.937500	-128.947205
30234.375000	-128.916351
30257.812500	-128.968262
30281.250000	-128.934189
30304.687500	-128.887482
30328.125000	-128.910004
30351.562500	-128.913177
30375.000000	-128.887390
30398.437500	-128.844162
30421.875000	-128.902985
30445.312500	-128.919098
30468.750000	-128.858444
30492.187500	-128.875351
30515.625000	-128.999313
30539.062500	-128.915085
30562.500000	-128.871368
30585.937500	-128.910370
30609.375000	-128.940018
30632.812500	-128.876877
30656.250000	-128.928741
30679.687500	-128.883041
30703.125000	-128.862259
30726.562500	-128.849136
30750.000000	-128.887726
30773.437500	-128.847107
30796.875000	-128.833054
30820.312500	-128.817398
30843.750000	-128.931381
30867.187500	-128.910660
30890.625000	-128.916306
30914.062500	-128.958984
30937.500000	-128.871506
30960.937500	-128.892303
30984.375000	-128.990265
31007.812500	-128.919952
31031.250000	-128.932831
31054.687500	-128.926270
31078.125000	-128.836288
31101.562500	-128.846146
31125.000000	-128.762009
31148.437500	-128.785721
31171.875000	-129.007034
31195.312500	-128.942612
31218.750000	-128.884476
31242.187500	-128.874069
31265.625000	-128.829849
31289.062500	-128.879730
31312.500000	-128.829025
31335.937500	-128.886810
31359.375000	-128.928635
31382.812500	-128.916626
31406.250000	-128.959259
31429.687500	-128.916946
31453.125000	-128.783096
31476.562500	-128.769440
31500.000000	-128.763199
31523.437500	-128.765137
31546.875000	-128.682602
31570.312500	-128.895950
31593.750000	-128.843765
31617.187500	-128.823074
31640.625000	-128.966202
31664.062500	-129.013184
31687.500000	-128.970795
31710.937500	-128.909561
31734.375000	-128.867401
31757.812500	-128.865677
31781.250000	-128.906860
31804.687500	-128.784485
31828.125000	-128.773392
31851.562500	-128.851700
31875.000000	-128.844681
31898.437500	-128.847458
31921.875000	-128.851303
31945.312500	-128.833176
31968.750000	-128.804352
31992.187500	-128.774307
32015.625000	-128.781570
32039.062500	-128.900696
32062.500000	-128.855835
32085.937500	-128.948853
32109.375000	-128.940277
32132.812500	-128.855881
32156.250000	-128.802490
32179.687500	-128.891342
32203.125000	-128.924698
32226.562500	-128.873322
32250.000000	-128.943619
32273.437500	-128.801285
32296.875000	-128.728119
32320.312500	-128.810593
32343.750000	-128.896545
32367.187500	-128.970306
32390.625000	-128.832703
32414.062500	-128.876953
32437.500000	-128.881683
32460.937500	-128.907700
32484.375000	-128.890991
32507.812500	-128.795944
32531.250000	-128.787613
32554.687500	-128.762695
32578.125000	-128.737885
32601.562500	-128.862335
32625.000000	-128.863724
32648.437500	-128.915451
32671.875000	-128.893433
32695.312500	-128.823227
32718.750000	-128.827286
32742.187500	-128.766159
32765.625000	-128.844467
32789.062500	-128.812317
32812.500000	-128.892395
32835.937500	-128.920792
32859.375000	-128.902512
32882.812500	-128.825912
32906.250000	-128.801147
32929.687500	-128.827499
32953.125000	-128.814453
32976.562500	-128.771286
33000.000000	-128.800278
33023.437500	-128.802917
33046.875000	-128.833893
33070.312500	-128.833740
33093.750000	-128.840820
33117.187500	-128.839539
33140.625000	-128.832977
33164.062500	-128.824097
33187.500000	-128.757111
33210.937500	-128.837738
33234.375000	-128.876480
33257.812500	-128.785049
33281.250000	-128.789581
33304.687500	-128.696381
33328.125000	-128.713928
33351.562500	-128.794876
33375.000000	-128.791718
33398.437500	-128.858292
33421.875000	-128.835159
33445.312500	-128.825043
33468.750000	-128.846634
33492.187500	-128.865417
33515.625000	-128.825195
33539.062500	-128.780685
33562.500000	-128.831604
33585.937500	-128.862335
33609.375000	-128.850647
33632.812500	-128.806503
33656.250000	-128.821075
33679.687500	-128.775726
33703.125000	-128.740097
33726.562500	-128.682968
33750.000000	-128.771515
33773.437500	-128.814621
33796.875000	-128.757050
33820.312500	-128.794739
33843.750000	-128.871841
33867.187500	-128.862259
33890.625000	-128.889725
33914.062500	-128.890976
33937.500000	-128.825806
33960.937500	-128.825043
33984.375000	-128.798233
34007.812500	-128.799026
34031.250000	-128.857010
34054.687500	-128.728043
34078.125000	-128.759552
34101.562500	-128.711929
34125.000000	-128.879166
34148.437500	-128.882446
34171.875000	-128.851822
34195.312500	-128.879196
34218.750000	-128.860626
34242.187500	-128.803864
34265.625000	-128.756027
34289.062500	-128.732117
34312.500000	-128.818039
34335.937500	-128.727295
34359.375000	-128.782120
34382.812500	-128.692978
34406.250000	-128.756363
34429.687500	-128.790649
34453.125000	-128.861801
34476.562500	-128.805969
34500.000000	-128.707413
34523.437500	-128.752640
34546.875000	-128.793152
34570.312500	-128.843933
34593.750000	-128.856415
34617.187500	-128.901230
34640.625000	-128.824738
34664.062500	-128.780045
34687.500000	-128.839417
34710.937500	-128.747925
34734.375000	-128.695251
34757.812500	-128.892273
34781.250000	-128.841660
34804.687500	-128.785583
34828.125000	-128.820038
34851.562500	-128.837662
34875.000000	-128.829956
34898.437500	-128.796631
34921.875000	-128.790939
34945.312500	-128.850189
34968.750000	-128.666824
34992.187500	-128.688553
35015.625000	-128.899170
35039.062500	-128.804428
35062.500000	-128.735367
35085.937500	-128.794418
35109.375000	-128.809799
35132.812500	-128.794479
35156.250000	-128.726898
35179.687500	-128.833862
35203.125000	-128.927414
35226.562500	-128.739334
35250.000000	-128.722900
35273.437500	-128.761780
35296.875000	-128.814285
35320.312500	-128.796860
35343.750000	-128.877426
35367.187500	-128.765533
35390.625000	-128.747864
35414.062500	-128.791901
35437.500000	-128.797485
35460.937500	-128.792786
35484.375000	-128.702087
35507.812500	-128.811981
35531.250000	-128.819794
35554.687500	-128.806274
35578.125000	-128.808777
35601.562500	-128.794617
35625.000000	-128.882278
35648.437500	-128.842911
35671.875000	-128.806442
35695.312500	-128.809448
35718.750000	-128.663254
35742.187500	-128.720810
35765.625000	-128.747528
35789.062500	-128.762009
35812.500000	-128.749069
35835.937500	-128.791504
35859.375000	-128.813034
35882.812500	-128.740784
35906.250000	-128.722824
35929.687500	-128.616058
35953.125000	-128.683823
35976.562500	-128.711349
36000.000000	-128.775726
36023.437500	-128.842667
36046.875000	-128.761261
36070.312500	-128.800690
36093.750000	-128.745880
36117.187500	-128.749710
36140.625000	-128.825897
36164.062500	-128.756195
36187.500000	-128.675674
36210.937500	-128.742874
36234.375000	-128.724045
36257.812500	-128.745544
36281.250000	-128.786758
36304.687500	-128.736053
36328.125000	-128.614700
36351.562500	-128.699677
36375.000000	-128.671951
36398.437500	-128.725616
36421.875000	-128.741882
36445.312500	-128.803574
36468.750000	-128.772903
36492.187500	-128.699738
36515.625000	-128.800095
36539.062500	-128.823166
36562.500000	-128.781708
36585.937500	-128.871078
36609.375000	-128.852173
36632.812500	-128.772415
36656.250000	-128.769836
36679.687500	-128.754074
36703.125000	-128.762878
36726.562500	-128.743057
36750.000000	-128.826004
36773.437500	-128.756393
36796.875000	-128.790085
36820.312500	-128.763199
36843.750000	-128.730072
36867.187500	-128.776367
36890.625000	-128.679871
36914.062500	-128.738739
36937.500000	-128.770737
36960.937500	-128.725327
36984.375000	-128.734314
37007.812500	-128.740250
37031.250000	-128.833496
37054.687500	-128.919342
37078.125000	-128.850998
37101.562500	-128.691010
37125.000000	-128.630096
37148.437500	-128.687454
37171.875000	-128.631866
37195.312500	-128.725616
37218.750000	-128.673737
37242.187500	-128.612793
37265.625000	-128.615936
37289.062500	-128.674713
37312.500000	-128.717178
37335.937500	-128.609406
37359.375000	-128.604065
37382.812500	-128.541733
37406.250000	-128.595093
37429.687500	-128.609451
37453.125000	-128.591492
37476.562500	-128.562347
37500.000000	-128.589371
37523.437500	-128.486465
37546.875000	-128.413712
37570.312500	-128.526596
37593.750000	-128.579254
37617.187500	-128.572372
37640.625000	-128.591537
37664.062500	-128.626984
37687.500000	-128.635666
37710.937500	-128.724075
37734.375000	-128.715622
37757.812500	-128.753052
37781.250000	-128.712784
37804.687500	-128.670639
37828.125000	-128.707001
37851.562500	-128.684769
37875.000000	-128.729675
37898.437500	-128.693497
37921.875000	-128.637222
37945.312500	-128.626770
37968.750000	-128.759949
37992.187500	-128.709579
38015.625000	-128.709198
38039.062500	-128.691040
38062.500000	-128.693481
38085.937500	-128.558258
38109.375000	-128.614349
38132.812500	-128.664413
38156.250000	-128.650085
38179.687500	-128.604507
38203.125000	-128.639053
38226.562500	-128.392609
38250.000000	-128.245392
38273.437500	-128.160767
38296.875000	-127.855545
38320.312500	-127.872414
38343.750000	-128.226242
38367.187500	-128.338501
38390.625000	-128.211975
38414.062500	-128.065369
38437.500000	-128.265350
38460.937500	-128.299393
38484.375000	-128.343002
38507.812500	-128.289658
38531.250000	-128.303635
38554.687500	-128.382523
38578.125000	-128.491791
38601.562500	-128.435822
38625.000000	-128.454346
38648.437500	-128.508011
38671.875000	-128.459671
38695.312500	-128.523575
38718.750000	-128.558395
38742.187500	-128.593246
38765.625000	-128.603516
38789.062500	-128.547607
38812.500000	-128.588089
38835.937500	-128.600784
38859.375000	-128.579071
38882.812500	-128.504303
38906.250000	-128.488464
38929.687500	-128.600754
38953.125000	-128.641769
38976.562500	-128.639191
39000.000000	-128.553604
39023.437500	-128.611557
39046.875000	-128.660507
39070.312500	-128.660248
39093.750000	-128.557678
39117.187500	-128.576843
39140.625000	-128.654816
39164.062500	-128.621399
39187.500000	-128.536682
39210.937500	-128.547806
39234.375000	-128.623566
39257.812500	-128.610519
39281.250000	-128.606491
39304.687500	-128.541595
39328.125000	-128.581085
39351.562500	-128.641388
39375.000000	-128.652771
39398.437500	-128.591064
39421.875000	-128.560394
39445.312500	-128.553848
39468.750000	-128.552872
39492.187500	-128.647461
39515.625000	-128.610321
39539.062500	-128.588943
39562.500000	-128.598022
39585.937500	-128.607285
39609.375000	-128.593979
39632.812500	-128.529037
39656.250000	-128.619125
39679.687500	-128.634232
39703.125000	-128.653458
39726.562500	-128.673615
39750.000000	-128.607239
39773.437500	-128.575989
39796.875000	-128.720261
39820.312500	-128.687317
39843.750000	-128.603500
39867.187500	-128.605988
39890.625000	-128.620804
39914.062500	-128.635300
39937.500000	-128.685089
39960.937500	-128.608734
39984.375000	-128.555862
40007.812500	-128.675552
40031.250000	-128.782593
40054.687500	-128.742462
40078.125000	-128.599152
40101.562500	-128.570663
40125.000000	-128.579361
40148.437500	-128.663300
40171.875000	-128.774155
40195.312500	-128.651230
40218.750000	-128.523804
40242.187500	-128.548843
40265.625000	-128.306961
40289.062500	-128.455536
40312.500000	-128.604233
40335.937500	-128.722229
40359.375000	-128.723984
40382.812500	-128.691544
40406.250000	-128.694717
40429.687500	-128.647156
40453.125000	-128.640411
40476.562500	-128.681702
40500.000000	-128.532776
40523.437500	-128.514023
40546.875000	-128.609955
40570.312500	-128.687225
40593.750000	-128.659683
40617.187500	-128.633331
40640.625000	-128.685043
40664.062500	-128.660202
40687.500000	-128.695892
40710.937500	-128.734360
40734.375000	-128.675034
40757.812500	-128.651932
40781.250000	-128.632385
40804.687500	-128.698853
40828.125000	-128.569321
40851.562500	-128.560287
40875.000000	-128.631241
40898.437500	-128.740723
40921.875000	-128.696136
40945.312500	-128.635925
40968.750000	-128.634430
40992.187500	-128.724426
41015.625000	-128.636948
41039.062500	-128.610168
41062.500000	-128.613892
41085.937500	-128.613174
41109.375000	-128.643539
41132.812500	-128.586258
41156.250000	-128.640823
41179.687500	-128.687195
41203.125000	-128.728790
41226.562500	-128.719818
41250.000000	-128.709290
41273.437500	-128.675797
41296.875000	-128.656815
41320.312500	-128.605148
41343.750000	-128.663116
41367.187500	-128.661942
41390.625000	-128.816040
41414.062500	-128.748779
41437.500000	-128.724747
41460.937500	-128.720840
41484.375000	-128.745773
41507.812500	-128.753952
41531.250000	-128.779572
41554.687500	-128.764740
41578.125000	-128.678528
41601.562500	-128.632263
41625.000000	-128.640137
41648.437500	-128.630707
41671.875000	-128.706146
41695.312500	-128.753754
41718.750000	-128.652008
41742.187500	-128.691864
41765.625000	-128.689392
41789.062500	-128.786255
41812.500000	-128.831940
41835.937500	-128.850006
41859.375000	-128.762253
41882.812500	-128.736237
41906.250000	-128.757904
41929.687500	-128.823135
41953.125000	-128.827942
41976.562500	-128.711884
42000.000000	-128.610519
42023.437500	-128.752090
42046.875000	-128.802246
42070.312500	-128.763016
42093.750000	-128.789612
42117.187500	-128.768036
42140.625000	-128.735901
42164.062500	-128.810593
42187.500000	-128.798737
42210.937500	-128.815445
42234.375000	-128.791611
42257.812500	-128.880188
42281.250000	-128.925064
42304.687500	-128.807388
42328.125000	-128.851807
42351.562500	-128.814056
42375.000000	-128.746964
42398.437500	-128.797867
42421.875000	-128.902252
42445.312500	-128.835251
42468.750000	-128.746948
42492.187500	-128.850708
42515.625000	-128.941452
42539.062500	-128.889786
42562.500000	-128.842331
42585.937500	-128.986023
42609.375000	-128.954712
42632.812500	-128.854858
42656.250000	-128.795624
42679.687500	-128.888336
42703.125000	-128.926270
42726.562500	-128.904419
42750.000000	-128.848892
42773.437500	-128.857468
42796.875000	-128.957565
42820.312500	-128.967026
42843.750000	-129.027954
42867.187500	-128.929840
42890.625000	-128.961884
42914.062500	-128.953857
42937.500000	-129.001923
42960.937500	-129.058990
42984.375000	-128.975998
43007.812500	-128.884750
43031.250000	-128.911697
43054.687500	-129.052078
43078.125000	-129.061203
43101.562500	-129.070435
43125.000000	-129.107132
43148.437500	-129.042969
43171.875000	-129.059448
43195.312500	-129.093460
43218.750000	-129.050400
43242.187500	-129.079971
43265.625000	-129.088913
43289.062500	-129.125259
43312.500000	-129.170685
43335.937500	-129.114609
43359.375000	-129.116287
43382.812500	-129.051041
43406.250000	-129.041565
43429.687500	-129.161285
43453.125000	-129.211395
43476.562500	-129.124359
43500.000000	-128.997650
43523.437500	-129.142120
43546.875000	-129.186478
43570.312500	-129.099335
43593.750000	-129.085510
43617.187500	-129.104309
43640.625000	-129.158249
43664.062500	-129.184998
43687.500000	-129.186295
43710.937500	-129.227386
43734.375000	-129.260620
43757.812500	-129.365372
43781.250000	-129.311371
43804.687500	-129.240128
43828.125000	-129.268402
43851.562500	-129.298080
43875.000000	-129.297165
43898.437500	-129.295532
43921.875000	-129.297485
43945.312500	-129.364258
43968.750000	-129.341919
43992.187500	-129.428894
44015.625000	-129.460938
44039.062500	-129.362122
44062.500000	-129.264465
44085.937500	-129.328888
44109.375000	-129.379608
44132.812500	-129.371689
44156.250000	-129.458542
44179.687500	-129.498352
44203.125000	-129.505493
44226.562500	-129.409454
44250.000000	-129.409821
44273.437500	-129.482727
44296.875000	-129.539597
44320.312500	-129.482376
44343.750000	-129.424728
44367.187500	-129.468048
44390.625000	-129.498138
44414.062500	-129.526108
44437.500000	-129.556885
44460.937500	-129.627335
44484.375000	-129.515152
44507.812500	-129.436584
44531.250000	-129.561478
44554.687500	-129.582474
44578.125000	-129.604111
44601.562500	-129.555496
44625.000000	-129.473618
44648.437500	-129.577255
44671.875000	-129.584137
44695.312500	-129.627472
44718.750000	-129.646774
44742.187500	-129.625595
44765.625000	-129.623108
44789.062500	-129.728897
44812.500000	-129.790054
44835.937500	-129.766342
44859.375000	-129.775055
44882.812500	-129.765015
44906.250000	-129.760544
44929.687500	-129.770264
44953.125000	-129.703400
44976.562500	-129.748566
45000.000000	-129.725555
45023.437500	-129.880341
45046.875000	-129.856552
45070.312500	-129.798660
45093.750000	-129.894485
45117.187500	-129.971115
45140.625000	-129.936020
45164.062500	-129.911911
45187.500000	-129.967819
45210.937500	-129.956390
45234.375000	-129.859726
45257.812500	-129.856018
45281.250000	-130.033798
45304.687500	-130.078186
45328.125000	-130.060043
45351.562500	-130.075272
45375.000000	-129.995178
45398.437500	-130.139328
45421.875000	-130.158524
45445.312500	-130.118179
45468.750000	-130.142105
45492.187500	-130.131714
45515.625000	-130.237366
45539.062500	-130.280518
45562.500000	-130.150711
45585.937500	-130.027481
45609.375000	-130.048401
45632.812500	-130.115677
45656.250000	-130.136353
45679.687500	-130.172104
45703.125000	-130.238693
45726.562500	-130.297989
45750.000000	-130.232590
45773.437500	-130.240799
45796.875000	-130.252853
45820.312500	-130.279968
45843.750000	-130.303055
45867.187500	-130.298553
45890.625000	-130.356308
45914.062500	-130.382492
45937.500000	-130.348572
45960.937500	-130.469666
45984.375000	-130.512878
46007.812500	-130.438354
46031.250000	-130.452209
46054.687500	-130.541458
46078.125000	-130.489273
46101.562500	-130.500778
46125.000000	-130.548843
46148.437500	-130.485687
46171.875000	-130.473541
46195.312500	-130.485962
46218.750000	-130.565582
46242.187500	-130.615311
46265.625000	-130.609802
46289.062500	-130.624817
46312.500000	-130.642609
46335.937500	-130.614594
46359.375000	-130.659149
46382.812500	-130.787796
46406.250000	-130.747070
46429.687500	-130.680099
46453.125000	-130.750641
46476.562500	-130.705933
46500.000000	-130.678360
46523.437500	-130.677841
46546.875000	-130.693100
46570.312500	-130.629425
46593.750000	-130.722687
46617.187500	-130.769928
46640.625000	-130.862808
46664.062500	-130.853287
46687.500000	-130.702576
46710.937500	-130.743896
46734.375000	-130.727158
46757.812500	-130.739288
46781.250000	-130.800995
46804.687500	-130.786652
46828.125000	-130.813690
46851.562500	-130.847229
46875.000000	-130.897842
46898.437500	-130.922058
46921.875000	-130.858505
46945.312500	-130.855682
46968.750000	-130.918091
46992.187500	-130.991089
47015.625000	-130.947189
47039.062500	-131.016098
47062.500000	-130.931458
47085.937500	-130.831161
47109.375000	-130.984665
47132.812500	-130.982758
47156.250000	-130.859787
47179.687500	-130.906204
47203.125000	-131.029358
47226.562500	-131.058868
47250.000000	-131.036865
47273.437500	-130.972702
47296.875000	-130.943542
47320.312500	-130.958069
47343.750000	-131.018570
47367.187500	-131.018692
47390.625000	-131.042450
47414.062500	-131.146317
47437.500000	-131.144516
47460.937500	-131.076248
47484.375000	-131.083191
47507.812500	-131.149796
47531.250000	-131.149170
47554.687500	-131.111954
47578.125000	-130.997025
47601.562500	-131.079559
47625.000000	-131.082291
47648.437500	-131.151001
47671.875000	-131.152863
47695.312500	-131.157364
47718.750000	-131.189957
47742.187500	-131.220398
47765.625000	-131.181824
47789.062500	-131.155838
47812.500000	-131.105988
47835.937500	-131.103851
47859.375000	-131.116852
47882.812500	-131.134460
47906.250000	-131.140472
47929.687500	-131.128693
47953.125000	-131.120316
47976.562500	-131.187363
