주파수 (Hz)	레벨 (dB)
23.437500	-92.343040
46.875000	-78.283882
70.312500	-63.778885
93.750000	-55.992378
117.187500	-52.196045
140.625000	-51.236443
164.062500	-52.734917
187.500000	-49.957027
210.937500	-48.790165
234.375000	-47.509487
257.812500	-45.743050
281.250000	-46.082798
304.687500	-45.590946
328.125000	-45.243950
351.562500	-44.085270
375.000000	-46.962158
398.437500	-46.679089
421.875000	-47.423794
445.312500	-43.660728
468.750000	-41.774197
492.187500	-47.395519
515.625000	-46.367325
539.062500	-44.229488
562.500000	-43.920120
585.937500	-48.390335
609.375000	-44.442875
632.812500	-42.992405
656.250000	-50.931351
679.687500	-48.466568
703.125000	-44.193039
726.562500	-50.000046
750.000000	-55.798656
773.437500	-50.963970
796.875000	-50.550499
820.312500	-49.461922
843.750000	-48.931973
867.187500	-56.093300
890.625000	-55.934654
914.062500	-55.077435
937.500000	-52.286438
960.937500	-57.510658
984.375000	-58.038506
1007.812500	-60.205944
1031.250000	-52.909424
1054.687500	-49.490993
1078.125000	-55.963886
1101.562500	-59.011211
1125.000000	-61.736145
1148.437500	-64.307968
1171.875000	-58.419861
1195.312500	-60.187363
1218.750000	-62.139824
1242.187500	-57.969704
1265.625000	-59.374023
1289.062500	-66.236343
1312.500000	-63.748657
1335.937500	-63.620686
1359.375000	-66.491188
1382.812500	-60.925804
1406.250000	-56.354839
1429.687500	-61.221169
1453.125000	-64.225250
1476.562500	-62.864231
1500.000000	-65.768066
1523.437500	-67.526817
1546.875000	-65.815254
1570.312500	-61.343811
1593.750000	-62.329689
1617.187500	-68.674622
1640.625000	-67.122375
1664.062500	-64.122070
1687.500000	-65.532570
1710.937500	-70.347298
1734.375000	-68.146408
1757.812500	-62.166237
1781.250000	-61.882710
1804.687500	-68.540695
1828.125000	-69.018005
1851.562500	-66.007706
1875.000000	-61.866741
1898.437500	-63.504990
1921.875000	-70.729698
1945.312500	-72.284637
1968.750000	-68.442741
1992.187500	-65.644051
2015.625000	-70.028061
2039.062500	-75.844009
2062.500000	-72.587975
2085.937500	-65.735207
2109.375000	-62.251961
2132.812500	-64.443283
2156.250000	-72.296043
2179.687500	-72.503090
2203.125000	-69.356117
2226.562500	-70.311356
2250.000000	-71.643166
2273.437500	-75.710472
2296.875000	-76.858315
2320.312500	-73.926682
2343.750000	-69.659225
2367.187500	-66.298859
2390.625000	-67.688759
2414.062500	-74.741699
2437.500000	-77.587379
2460.937500	-71.326225
2484.375000	-67.015129
2507.812500	-66.972061
2531.250000	-65.717392
2554.687500	-72.321922
2578.125000	-78.853729
2601.562500	-78.818085
2625.000000	-78.379158
2648.437500	-74.170288
2671.875000	-72.069717
2695.312500	-74.320679
2718.750000	-79.384598
2742.187500	-79.334900
2765.625000	-75.254341
2789.062500	-72.170013
2812.500000	-72.168411
2835.937500	-68.639137
2859.375000	-69.716286
2882.812500	-76.602448
2906.250000	-79.543404
2929.687500	-79.144485
2953.125000	-74.677139
2976.562500	-75.734306
3000.000000	-79.660591
3023.437500	-80.125000
3046.875000	-81.474129
3070.312500	-81.843025
3093.750000	-74.720551
3117.187500	-77.240517
3140.625000	-76.731087
3164.062500	-71.941559
3187.500000	-71.790550
3210.937500	-73.669281
3234.375000	-79.092552
3257.812500	-85.541893
3281.250000	-84.403549
3304.687500	-83.768791
3328.125000	-75.854195
3351.562500	-76.517647
3375.000000	-79.952614
3398.437500	-78.137558
3421.875000	-80.320862
3445.312500	-85.891281
3468.750000	-86.716019
3492.187500	-83.051926
3515.625000	-82.559784
3539.062500	-82.755188
3562.500000	-81.384781
3585.937500	-78.965752
3609.375000	-75.661095
3632.812500	-76.080177
3656.250000	-83.157738
3679.687500	-85.519714
3703.125000	-83.151405
3726.562500	-85.856071
3750.000000	-75.406006
3773.437500	-73.381393
3796.875000	-79.920380
3820.312500	-77.491440
3843.750000	-75.184357
3867.187500	-78.869041
3890.625000	-89.056465
3914.062500	-91.987923
3937.500000	-87.763504
3960.937500	-85.709671
3984.375000	-80.902000
4007.812500	-79.605637
4031.250000	-85.125778
4054.687500	-89.117897
4078.125000	-87.327255
4101.562500	-88.323097
4125.000000	-91.158226
4148.437500	-93.516922
4171.875000	-93.140289
4195.312500	-90.410255
4218.750000	-89.398270
4242.187500	-85.660301
4265.625000	-86.288345
4289.062500	-87.121605
4312.500000	-83.705231
4335.937500	-81.032242
4359.375000	-84.437958
4382.812500	-91.842171
4406.250000	-92.881714
4429.687500	-92.412941
4453.125000	-91.565842
4476.562500	-84.508583
4500.000000	-81.903824
4523.437500	-85.528053
4546.875000	-86.133034
4570.312500	-88.511086
4593.750000	-86.546097
4617.187500	-89.754990
4640.625000	-94.229942
4664.062500	-96.146461
4687.500000	-92.828293
4710.937500	-94.146286
4734.375000	-88.365540
4757.812500	-88.962463
4781.250000	-91.737839
4804.687500	-90.197655
4828.125000	-89.682076
4851.562500	-89.457756
4875.000000	-91.713348
4898.437500	-93.691566
4921.875000	-92.321617
4945.312500	-94.297333
4968.750000	-100.711342
4992.187500	-102.369385
5015.625000	-98.636665
5039.062500	-93.879662
5062.500000	-91.714821
5085.937500	-95.143028
5109.375000	-98.008781
5132.812500	-92.402863
5156.250000	-88.012695
5179.687500	-88.259712
5203.125000	-95.723000
5226.562500	-99.819695
5250.000000	-100.493721
5273.437500	-103.170479
5296.875000	-106.612885
5320.312500	-102.355225
5343.750000	-98.146744
5367.187500	-97.113838
5390.625000	-99.440285
5414.062500	-99.369705
5437.500000	-99.641983
5460.937500	-100.070869
5484.375000	-95.427284
5507.812500	-96.534134
5531.250000	-97.667358
5554.687500	-95.519341
5578.125000	-100.264648
5601.562500	-102.639359
5625.000000	-103.502205
5648.437500	-106.117065
5671.875000	-104.961021
5695.312500	-100.538795
5718.750000	-96.031418
5742.187500	-93.609749
5765.625000	-97.573135
5789.062500	-102.180801
5812.500000	-95.741913
5835.937500	-90.282425
5859.375000	-93.465523
5882.812500	-100.673409
5906.250000	-100.098000
5929.687500	-102.134598
5953.125000	-98.955231
5976.562500	-98.794403
6000.000000	-102.555496
6023.437500	-106.533409
6046.875000	-106.485924
6070.312500	-104.583374
6093.750000	-101.851952
6117.187500	-101.789642
6140.625000	-101.763985
6164.062500	-90.609680
6187.500000	-88.240662
6210.937500	-94.817879
6234.375000	-104.833466
6257.812500	-106.744957
6281.250000	-102.444946
6304.687500	-100.000473
6328.125000	-103.316803
6351.562500	-102.287315
6375.000000	-99.809601
6398.437500	-102.390259
6421.875000	-106.527618
6445.312500	-104.077049
6468.750000	-100.912178
6492.187500	-100.922585
6515.625000	-102.539085
6539.062500	-105.142075
6562.500000	-100.322548
6585.937500	-96.422409
6609.375000	-98.474968
6632.812500	-103.560425
6656.250000	-105.493355
6679.687500	-102.695122
6703.125000	-103.439018
6726.562500	-105.407219
6750.000000	-104.106705
6773.437500	-99.253693
6796.875000	-100.377007
6820.312500	-106.997810
6843.750000	-107.945793
6867.187500	-106.982841
6890.625000	-104.248032
6914.062500	-104.687050
6937.500000	-106.174629
6960.937500	-101.828789
6984.375000	-99.786430
7007.812500	-101.002647
7031.250000	-98.947472
7054.687500	-102.593498
7078.125000	-110.244026
7101.562500	-110.452965
7125.000000	-106.595276
7148.437500	-103.852066
7171.875000	-102.963051
7195.312500	-104.842110
7218.750000	-106.438339
7242.187500	-106.880806
7265.625000	-104.626602
7289.062500	-105.883095
7312.500000	-109.416611
7335.937500	-109.405922
7359.375000	-109.186401
7382.812500	-102.370110
7406.250000	-101.688728
7429.687500	-104.904297
7453.125000	-106.084747
7476.562500	-100.306862
7500.000000	-95.112854
7523.437500	-97.308754
7546.875000	-105.684280
7570.312500	-107.804855
7593.750000	-104.020279
7617.187500	-102.575577
7640.625000	-108.494034
7664.062500	-110.854065
7687.500000	-110.307213
7710.937500	-110.106850
7734.375000	-109.523323
7757.812500	-108.855904
7781.250000	-108.170868
7804.687500	-106.788445
7828.125000	-106.812454
7851.562500	-107.869598
7875.000000	-110.271675
7898.437500	-111.105339
7921.875000	-110.226364
7945.312500	-108.539391
7968.750000	-103.832207
7992.187500	-104.174904
8015.625000	-106.647949
8039.062500	-109.324455
8062.500000	-109.023651
8085.937500	-109.133095
8109.375000	-110.590935
8132.812500	-112.177872
8156.250000	-111.192490
8179.687500	-110.833717
8203.125000	-110.810242
8226.562500	-111.496170
8250.000000	-112.086868
8273.437500	-110.063675
8296.875000	-108.141548
8320.312500	-107.038681
8343.750000	-109.590355
8367.187500	-112.461151
8390.625000	-112.872002
8414.062500	-109.666138
8437.500000	-107.564453
8460.937500	-106.888496
8484.375000	-110.159019
8507.812500	-114.351997
8531.250000	-114.044441
8554.687500	-112.452248
8578.125000	-112.688438
8601.562500	-112.434502
8625.000000	-113.529594
8648.437500	-114.835098
8671.875000	-114.233116
8695.312500	-114.333923
8718.750000	-114.033501
8742.187500	-114.571526
8765.625000	-115.602104
8789.062500	-114.970322
8812.500000	-114.669884
8835.937500	-115.798431
8859.375000	-115.170715
8882.812500	-113.753380
8906.250000	-114.001106
8929.687500	-115.385925
8953.125000	-115.760376
8976.562500	-113.792137
9000.000000	-112.051720
9023.437500	-112.201256
9046.875000	-113.031158
9070.312500	-112.260956
9093.750000	-107.448761
9117.187500	-105.407669
9140.625000	-109.105003
9164.062500	-114.404564
9187.500000	-116.316986
9210.937500	-117.206520
9234.375000	-116.381813
9257.812500	-115.389526
9281.250000	-113.878685
9304.687500	-113.629494
9328.125000	-115.344452
9351.562500	-115.987839
9375.000000	-115.158859
9398.437500	-112.809723
9421.875000	-111.575874
9445.312500	-113.419647
9468.750000	-115.732178
9492.187500	-115.984322
9515.625000	-116.714447
9539.062500	-117.337486
9562.500000	-116.682014
9585.937500	-116.430023
9609.375000	-115.421913
9632.812500	-113.933205
9656.250000	-113.339378
9679.687500	-114.587807
9703.125000	-113.817261
9726.562500	-115.460869
9750.000000	-117.174515
9773.437500	-117.827446
9796.875000	-117.967987
9820.312500	-117.990143
9843.750000	-117.499352
9867.187500	-117.411697
9890.625000	-117.976608
9914.062500	-118.091682
9937.500000	-117.639412
9960.937500	-117.695839
9984.375000	-117.636040
10007.812500	-117.714760
10031.250000	-117.996254
10054.687500	-117.910583
10078.125000	-117.471886
10101.562500	-118.115303
10125.000000	-118.530533
10148.437500	-117.872002
10171.875000	-118.253311
10195.312500	-118.308281
10218.750000	-117.600540
10242.187500	-116.212753
10265.625000	-114.562492
10289.062500	-114.953285
10312.500000	-116.597267
10335.937500	-118.383598
10359.375000	-118.555542
10382.812500	-117.174446
10406.250000	-117.301514
10429.687500	-117.188393
10453.125000	-117.054184
10476.562500	-117.215965
10500.000000	-114.629234
10523.437500	-117.331108
10546.875000	-118.929886
10570.312500	-118.887070
10593.750000	-118.673058
10617.187500	-119.199905
10640.625000	-119.568909
10664.062500	-119.411797
10687.500000	-119.662056
10710.937500	-119.632904
10734.375000	-119.191475
10757.812500	-118.438034
10781.250000	-117.786293
10804.687500	-119.229240
10828.125000	-119.821762
10851.562500	-120.000443
10875.000000	-119.868271
10898.437500	-119.186119
10921.875000	-119.323563
10945.312500	-119.903351
10968.750000	-119.957405
10992.187500	-119.781578
11015.625000	-119.847717
11039.062500	-119.771004
11062.500000	-119.160751
11085.937500	-118.550865
11109.375000	-119.012199
11132.812500	-119.695045
11156.250000	-119.913940
11179.687500	-119.691399
11203.125000	-119.739662
11226.562500	-119.951965
11250.000000	-120.058334
11273.437500	-120.261772
11296.875000	-119.980034
11320.312500	-118.988159
11343.750000	-118.346848
11367.187500	-116.856110
11390.625000	-117.232582
11414.062500	-118.271309
11437.500000	-118.805374
11460.937500	-119.272911
11484.375000	-119.546562
11507.812500	-119.322166
11531.250000	-119.236458
11554.687500	-119.203362
11578.125000	-119.190186
11601.562500	-119.332703
11625.000000	-118.883598
11648.437500	-119.272987
11671.875000	-119.361511
11695.312500	-119.034019
11718.750000	-118.589241
11742.187500	-118.682663
11765.625000	-118.843559
11789.062500	-118.834114
11812.500000	-118.770119
11835.937500	-119.360031
11859.375000	-119.621468
11882.812500	-119.680069
11906.250000	-119.372253
11929.687500	-119.806664
11953.125000	-119.809784
11976.562500	-118.259933
12000.000000	-115.473152
12023.437500	-117.811874
12046.875000	-118.674530
12070.312500	-118.555336
12093.750000	-119.362099
12117.187500	-120.034134
12140.625000	-120.136581
12164.062500	-119.845406
12187.500000	-118.998940
12210.937500	-118.673553
12234.375000	-119.330910
12257.812500	-119.793198
12281.250000	-119.771904
12304.687500	-119.702545
12328.125000	-119.848923
12351.562500	-119.914177
12375.000000	-119.711380
12398.437500	-119.897385
12421.875000	-119.904968
12445.312500	-119.558151
12468.750000	-119.574852
12492.187500	-119.717422
12515.625000	-119.447037
12539.062500	-119.747292
12562.500000	-119.425301
12585.937500	-119.075600
12609.375000	-118.678238
12632.812500	-118.511421
12656.250000	-118.694824
12679.687500	-118.857140
12703.125000	-118.809898
12726.562500	-119.006783
12750.000000	-119.630226
12773.437500	-119.721222
12796.875000	-118.975418
12820.312500	-118.755638
12843.750000	-118.818878
12867.187500	-119.490570
12890.625000	-119.669991
12914.062500	-119.920059
12937.500000	-119.931824
12960.937500	-120.005028
12984.375000	-120.195099
13007.812500	-119.897903
13031.250000	-120.194389
13054.687500	-120.071236
13078.125000	-120.222382
13101.562500	-120.054619
13125.000000	-120.008835
13148.437500	-120.098282
13171.875000	-119.947639
13195.312500	-119.430267
13218.750000	-119.655373
13242.187500	-119.974434
13265.625000	-120.267860
13289.062500	-120.422920
13312.500000	-120.676292
13335.937500	-120.691490
13359.375000	-120.433723
13382.812500	-119.968987
13406.250000	-120.120216
13429.687500	-120.708382
13453.125000	-120.805801
13476.562500	-119.370064
13500.000000	-117.396774
13523.437500	-119.424957
13546.875000	-120.760162
13570.312500	-120.796730
13593.750000	-120.945969
13617.187500	-121.024780
13640.625000	-120.950294
13664.062500	-120.648445
13687.500000	-120.704208
13710.937500	-120.910568
13734.375000	-120.244911
13757.812500	-120.381264
13781.250000	-120.856659
13804.687500	-120.590111
13828.125000	-120.201256
13851.562500	-120.250137
13875.000000	-120.858261
13898.437500	-120.900520
13921.875000	-120.886276
13945.312500	-120.715530
13968.750000	-120.629181
13992.187500	-120.972404
14015.625000	-121.327049
14039.062500	-121.204422
14062.500000	-121.060555
14085.937500	-120.912880
14109.375000	-120.451569
14132.812500	-120.917511
14156.250000	-121.240456
14179.687500	-121.295563
14203.125000	-121.419724
14226.562500	-121.494743
14250.000000	-121.495514
14273.437500	-121.346336
14296.875000	-121.332779
14320.312500	-121.230110
14343.750000	-121.190460
14367.187500	-121.156891
14390.625000	-121.190178
14414.062500	-121.104706
14437.500000	-120.941338
14460.937500	-121.282150
14484.375000	-121.663277
14507.812500	-121.907257
14531.250000	-121.881180
14554.687500	-121.703430
14578.125000	-121.691437
14601.562500	-121.738686
14625.000000	-121.463493
14648.437500	-121.388954
14671.875000	-121.760818
14695.312500	-121.649948
14718.750000	-121.553108
14742.187500	-121.663399
14765.625000	-121.786781
14789.062500	-121.838318
14812.500000	-121.669609
14835.937500	-121.784454
14859.375000	-121.905861
14882.812500	-121.932961
14906.250000	-121.848305
14929.687500	-121.867523
14953.125000	-121.666702
14976.562500	-121.341187
15000.000000	-120.286888
15023.437500	-121.521400
15046.875000	-121.952629
15070.312500	-122.030853
15093.750000	-122.125488
15117.187500	-121.939766
15140.625000	-122.201042
15164.062500	-122.121986
15187.500000	-121.809731
15210.937500	-121.803322
15234.375000	-121.949303
15257.812500	-122.108955
15281.250000	-122.183319
15304.687500	-122.244583
15328.125000	-122.356293
15351.562500	-122.404404
15375.000000	-122.361946
15398.437500	-122.312599
15421.875000	-122.331360
15445.312500	-122.263191
15468.750000	-122.017693
15492.187500	-121.885033
15515.625000	-122.048332
15539.062500	-122.076340
15562.500000	-122.190651
15585.937500	-122.166595
15609.375000	-122.200356
15632.812500	-122.225327
15656.250000	-122.281731
15679.687500	-122.366714
15703.125000	-122.257790
15726.562500	-121.875824
15750.000000	-121.496277
15773.437500	-121.750229
15796.875000	-122.165863
15820.312500	-122.253044
15843.750000	-122.453072
15867.187500	-122.253250
15890.625000	-122.371231
15914.062500	-122.502525
15937.500000	-122.528442
15960.937500	-122.506973
15984.375000	-122.376297
16007.812500	-122.275124
16031.250000	-122.211899
16054.687500	-122.445251
16078.125000	-122.483337
16101.562500	-122.349358
16125.000000	-122.497864
16148.437500	-122.458443
16171.875000	-122.542793
16195.312500	-122.805923
16218.750000	-122.797127
16242.187500	-122.564339
16265.625000	-122.447197
16289.062500	-122.312065
16312.500000	-122.501396
16335.937500	-122.708366
16359.375000	-122.577568
16382.812500	-122.433502
16406.250000	-122.420525
16429.687500	-122.619766
16453.125000	-122.857964
16476.562500	-122.376923
16500.000000	-121.385925
16523.437500	-122.321930
16546.875000	-122.693619
16570.312500	-122.605438
16593.750000	-122.742348
16617.187500	-122.795700
16640.625000	-122.801659
16664.062500	-122.847313
16687.500000	-122.765633
16710.937500	-122.728394
16734.375000	-122.705093
16757.812500	-122.567879
16781.250000	-122.249046
16804.687500	-121.868362
16828.125000	-121.491585
16851.562500	-121.582542
16875.000000	-122.109039
16898.437500	-122.090370
16921.875000	-121.998665
16945.312500	-122.360092
16968.750000	-122.860367
16992.187500	-122.894005
17015.625000	-122.906998
17039.062500	-122.914734
17062.500000	-122.935234
17085.937500	-122.982010
17109.375000	-123.105354
17132.812500	-123.104317
17156.250000	-123.014320
17179.687500	-122.884369
17203.125000	-122.938362
17226.562500	-123.163902
17250.000000	-123.108475
17273.437500	-123.075577
17296.875000	-122.989189
17320.312500	-123.022644
17343.750000	-123.224915
17367.187500	-123.190712
17390.625000	-123.156731
17414.062500	-123.043808
17437.500000	-123.068863
17460.937500	-123.195198
17484.375000	-123.156647
17507.812500	-123.157356
17531.250000	-123.253258
17554.687500	-123.115417
17578.125000	-123.106400
17601.562500	-123.225578
17625.000000	-123.327797
17648.437500	-123.274002
17671.875000	-123.147095
17695.312500	-123.098366
17718.750000	-123.007904
17742.187500	-123.117142
17765.625000	-123.110046
17789.062500	-123.068710
17812.500000	-123.255608
17835.937500	-123.297935
17859.375000	-123.263733
17882.812500	-123.172058
17906.250000	-123.244881
17929.687500	-123.255447
17953.125000	-123.220833
17976.562500	-122.755363
18000.000000	-121.451073
18023.437500	-122.685211
18046.875000	-123.168900
18070.312500	-123.184418
18093.750000	-123.226761
18117.187500	-123.286324
18140.625000	-123.348389
18164.062500	-123.264114
18187.500000	-123.296028
18210.937500	-123.263351
18234.375000	-123.289299
18257.812500	-123.345230
18281.250000	-123.294434
18304.687500	-123.304848
18328.125000	-123.363777
18351.562500	-123.345444
18375.000000	-123.384727
18398.437500	-123.392105
18421.875000	-123.414818
18445.312500	-123.510803
18468.750000	-123.495049
18492.187500	-123.431015
18515.625000	-123.307762
18539.062500	-123.363144
18562.500000	-123.407181
18585.937500	-123.417107
18609.375000	-123.460556
18632.812500	-123.390182
18656.250000	-123.340096
18679.687500	-123.292519
18703.125000	-123.227196
18726.562500	-123.216370
18750.000000	-123.121117
18773.437500	-122.964615
18796.875000	-122.677040
18820.312500	-122.627930
18843.750000	-122.645592
18867.187500	-122.429733
18890.625000	-122.141586
18914.062500	-122.146957
18937.500000	-122.173775
18960.937500	-122.273178
18984.375000	-121.956085
19007.812500	-121.200607
19031.250000	-120.366814
19054.687500	-119.141068
19078.125000	-116.894798
19101.562500	-114.041626
19125.000000	-111.065628
19148.437500	-109.333229
19171.875000	-107.815643
19195.312500	-106.302383
19218.750000	-107.008934
19242.187500	-109.391289
19265.625000	-109.919884
19289.062500	-110.692642
19312.500000	-110.932587
19335.937500	-111.394287
19359.375000	-112.612328
19382.812500	-113.576370
19406.250000	-114.593590
19429.687500	-116.113831
19453.125000	-117.301498
19476.562500	-118.123589
19500.000000	-118.420784
19523.437500	-119.611824
19546.875000	-120.360168
19570.312500	-120.450920
19593.750000	-120.207680
19617.187500	-120.123131
19640.625000	-120.223022
19664.062500	-120.478302
19687.500000	-120.645119
19710.937500	-120.603355
19734.375000	-120.897919
19757.812500	-121.341225
19781.250000	-121.456131
19804.687500	-121.559731
19828.125000	-121.918297
19851.562500	-122.448669
19875.000000	-122.679260
19898.437500	-122.526016
19921.875000	-122.623268
19945.312500	-122.777840
19968.750000	-122.907944
19992.187500	-122.707153
20015.625000	-122.526901
20039.062500	-122.537399
20062.500000	-122.451149
20085.937500	-122.154144
20109.375000	-119.810860
20132.812500	-115.774284
20156.250000	-119.073372
20179.687500	-121.788269
20203.125000	-121.735481
20226.562500	-121.761978
20250.000000	-121.857407
20273.437500	-121.852402
20296.875000	-121.772568
20320.312500	-121.838501
20343.750000	-121.969398
20367.187500	-122.139900
20390.625000	-122.318619
20414.062500	-122.229813
20437.500000	-122.124306
20460.937500	-122.125572
20484.375000	-122.229836
20507.812500	-122.326523
20531.250000	-122.442413
20554.687500	-122.547501
20578.125000	-122.590866
20601.562500	-122.729752
20625.000000	-122.859253
20648.437500	-123.063828
20671.875000	-123.180893
20695.312500	-123.173630
20718.750000	-123.240730
20742.187500	-123.390099
20765.625000	-123.321884
20789.062500	-123.238335
20812.500000	-123.409920
20835.937500	-123.579712
20859.375000	-123.646584
20882.812500	-123.649773
20906.250000	-123.603706
20929.687500	-123.549278
20953.125000	-123.609749
20976.562500	-123.019440
21000.000000	-121.932663
21023.437500	-122.691849
21046.875000	-122.844177
21070.312500	-123.010292
21093.750000	-123.252960
21117.187500	-123.141304
21140.625000	-123.094925
21164.062500	-123.311172
21187.500000	-123.458435
21210.937500	-123.592224
21234.375000	-123.715431
21257.812500	-123.675140
21281.250000	-123.623039
21304.687500	-123.641754
21328.125000	-123.735970
21351.562500	-123.739876
21375.000000	-123.708519
21398.437500	-123.655968
21421.875000	-123.700958
21445.312500	-123.676125
21468.750000	-123.579498
21492.187500	-123.641197
21515.625000	-123.645897
21539.062500	-123.605469
21562.500000	-123.504646
21585.937500	-123.608124
21609.375000	-123.612984
21632.812500	-123.670219
21656.250000	-123.635124
21679.687500	-123.483673
21703.125000	-123.657173
21726.562500	-123.634369
21750.000000	-123.639481
21773.437500	-123.667938
21796.875000	-123.540497
21820.312500	-123.557297
21843.750000	-123.620613
21867.187500	-123.506470
21890.625000	-123.579948
21914.062500	-123.574280
21937.500000	-123.620689
21960.937500	-123.638893
21984.375000	-123.560219
22007.812500	-123.521492
22031.250000	-123.521439
22054.687500	-123.448875
22078.125000	-123.412094
22101.562500	-123.144112
22125.000000	-122.862679
22148.437500	-122.852844
22171.875000	-122.853592
22195.312500	-122.443825
22218.750000	-122.119049
22242.187500	-122.159782
22265.625000	-122.442482
22289.062500	-122.508972
22312.500000	-122.275391
22335.937500	-122.244904
22359.375000	-122.306244
22382.812500	-122.514557
22406.250000	-122.540199
22429.687500	-122.486244
22453.125000	-122.574150
22476.562500	-122.559555
22500.000000	-122.237091
22523.437500	-122.641220
22546.875000	-122.659782
22570.312500	-122.763298
22593.750000	-122.836334
22617.187500	-122.726868
22640.625000	-122.520210
22664.062500	-122.513329
22687.500000	-122.473564
22710.937500	-122.327805
22734.375000	-122.202263
22757.812500	-122.087486
22781.250000	-122.068451
22804.687500	-122.071678
22828.125000	-122.118141
22851.562500	-122.177246
22875.000000	-122.071365
22898.437500	-122.292198
22921.875000	-122.534950
22945.312500	-122.603394
22968.750000	-122.784370
22992.187500	-122.688034
23015.625000	-122.897072
23039.062500	-122.998940
23062.500000	-123.070557
23085.937500	-123.121857
23109.375000	-123.302887
23132.812500	-123.397743
23156.250000	-123.315369
23179.687500	-123.313576
23203.125000	-123.423927
23226.562500	-123.454109
23250.000000	-123.412613
23273.437500	-123.428207
23296.875000	-123.501442
23320.312500	-123.316689
23343.750000	-123.198753
23367.187500	-123.347351
23390.625000	-123.419189
23414.062500	-123.377174
23437.500000	-123.420662
23460.937500	-123.445435
23484.375000	-123.484138
23507.812500	-123.497620
23531.250000	-123.473450
23554.687500	-123.532631
23578.125000	-123.685043
23601.562500	-123.733208
23625.000000	-123.756248
23648.437500	-123.927666
23671.875000	-123.979393
23695.312500	-123.922600
23718.750000	-123.890396
23742.187500	-123.958107
23765.625000	-123.897591
23789.062500	-123.910492
23812.500000	-123.933456
23835.937500	-124.052078
23859.375000	-124.122581
23882.812500	-124.049995
23906.250000	-124.105690
23929.687500	-124.170776
23953.125000	-124.079697
23976.562500	-123.966171
24000.000000	-123.769600
24023.437500	-124.051506
24046.875000	-124.014435
24070.312500	-124.093559
24093.750000	-124.170242
24117.187500	-124.191093
24140.625000	-124.080681
24164.062500	-124.039497
24187.500000	-124.231689
24210.937500	-124.305664
24234.375000	-124.267509
24257.812500	-124.172615
24281.250000	-124.128937
24304.687500	-124.199654
24328.125000	-124.205933
24351.562500	-124.087074
24375.000000	-124.202362
24398.437500	-124.160370
24421.875000	-124.159683
24445.312500	-124.171555
24468.750000	-124.187744
24492.187500	-124.184174
24515.625000	-124.184433
24539.062500	-124.182281
24562.500000	-124.092026
24585.937500	-124.074066
24609.375000	-124.126282
24632.812500	-124.163979
24656.250000	-124.137642
24679.687500	-124.167885
24703.125000	-124.176849
24726.562500	-124.283676
24750.000000	-124.252769
24773.437500	-124.199936
24796.875000	-124.170265
24820.312500	-124.217728
24843.750000	-124.099678
24867.187500	-124.186302
24890.625000	-124.203346
24914.062500	-124.251541
24937.500000	-124.228714
24960.937500	-124.215767
24984.375000	-124.187698
25007.812500	-124.171791
25031.250000	-124.268913
25054.687500	-124.270477
25078.125000	-124.267532
25101.562500	-124.202713
25125.000000	-124.206055
25148.437500	-124.174835
25171.875000	-124.033401
25195.312500	-124.005997
25218.750000	-123.921806
25242.187500	-123.826538
25265.625000	-123.828995
25289.062500	-124.052063
25312.500000	-124.090652
25335.937500	-124.049316
25359.375000	-123.951645
25382.812500	-123.961601
25406.250000	-124.028069
25429.687500	-124.082497
25453.125000	-124.146423
25476.562500	-124.177795
25500.000000	-124.209579
25523.437500	-124.273346
25546.875000	-124.238266
25570.312500	-124.172356
25593.750000	-124.243332
25617.187500	-124.246605
25640.625000	-124.301079
25664.062500	-124.342232
25687.500000	-124.361748
25710.937500	-124.314766
25734.375000	-124.344185
25757.812500	-124.274681
25781.250000	-124.218689
25804.687500	-124.258530
25828.125000	-124.307739
25851.562500	-124.382774
25875.000000	-124.300911
25898.437500	-124.291512
25921.875000	-124.280792
25945.312500	-124.328415
25968.750000	-124.414230
25992.187500	-124.299774
26015.625000	-124.329689
26039.062500	-124.286484
26062.500000	-124.319153
26085.937500	-124.324028
26109.375000	-124.279076
26132.812500	-124.237808
26156.250000	-124.300743
26179.687500	-124.357323
26203.125000	-124.361519
26226.562500	-124.318298
26250.000000	-124.312897
26273.437500	-124.312653
26296.875000	-124.341705
26320.312500	-124.321648
26343.750000	-124.274788
26367.187500	-124.334663
26390.625000	-124.397324
26414.062500	-124.341759
26437.500000	-124.319031
26460.937500	-124.359497
26484.375000	-124.343834
26507.812500	-124.383354
26531.250000	-124.376122
26554.687500	-124.467361
26578.125000	-124.540062
26601.562500	-124.398796
26625.000000	-124.299362
26648.437500	-124.318695
26671.875000	-124.296532
26695.312500	-124.321495
26718.750000	-124.307114
26742.187500	-124.383018
26765.625000	-124.384644
26789.062500	-124.364227
26812.500000	-124.403343
26835.937500	-124.328262
26859.375000	-124.361168
26882.812500	-124.359871
26906.250000	-124.380081
26929.687500	-124.477356
26953.125000	-124.473747
26976.562500	-124.359261
27000.000000	-124.312943
27023.437500	-124.416634
27046.875000	-124.442162
27070.312500	-124.427292
27093.750000	-124.544136
27117.187500	-124.533203
27140.625000	-124.425781
27164.062500	-124.439369
27187.500000	-124.500130
27210.937500	-124.527885
27234.375000	-124.430237
27257.812500	-124.415596
27281.250000	-124.444405
27304.687500	-124.452446
27328.125000	-124.338928
27351.562500	-124.381584
27375.000000	-124.408684
27398.437500	-124.407951
27421.875000	-124.353699
27445.312500	-124.379143
27468.750000	-124.405472
27492.187500	-124.452644
27515.625000	-124.440163
27539.062500	-124.439812
27562.500000	-124.419380
27585.937500	-124.450806
27609.375000	-124.422295
27632.812500	-124.486717
27656.250000	-124.540878
27679.687500	-124.494255
27703.125000	-124.392174
27726.562500	-124.439087
27750.000000	-124.436447
27773.437500	-124.437729
27796.875000	-124.445320
27820.312500	-124.532379
27843.750000	-124.501480
27867.187500	-124.476448
27890.625000	-124.410210
27914.062500	-124.314812
27937.500000	-124.447647
27960.937500	-124.432640
27984.375000	-124.492531
28007.812500	-124.521217
28031.250000	-124.535469
28054.687500	-124.525093
28078.125000	-124.511665
28101.562500	-124.551208
28125.000000	-124.504021
28148.437500	-124.482887
28171.875000	-124.549782
28195.312500	-124.552673
28218.750000	-124.385185
28242.187500	-124.387466
28265.625000	-124.415092
28289.062500	-124.508324
28312.500000	-124.560326
28335.937500	-124.551956
28359.375000	-124.531898
28382.812500	-124.533707
28406.250000	-124.544449
28429.687500	-124.539230
28453.125000	-124.458244
28476.562500	-124.386536
28500.000000	-124.414497
28523.437500	-124.531799
28546.875000	-124.572174
28570.312500	-124.485252
28593.750000	-124.452232
28617.187500	-124.393738
28640.625000	-124.399040
28664.062500	-124.492081
28687.500000	-124.476189
28710.937500	-124.462570
28734.375000	-124.434303
28757.812500	-124.510330
28781.250000	-124.556557
28804.687500	-124.587372
28828.125000	-124.527428
28851.562500	-124.456741
28875.000000	-124.511345
28898.437500	-124.484245
28921.875000	-124.369148
28945.312500	-124.380142
28968.750000	-124.441612
28992.187500	-124.414597
29015.625000	-124.425720
29039.062500	-124.484390
29062.500000	-124.515617
29085.937500	-124.489731
29109.375000	-124.404770
29132.812500	-124.461960
29156.250000	-124.512543
29179.687500	-124.444221
29203.125000	-124.392242
29226.562500	-124.392708
29250.000000	-124.506874
29273.437500	-124.539330
29296.875000	-124.501968
29320.312500	-124.437546
29343.750000	-124.520844
29367.187500	-124.584175
29390.625000	-124.575813
29414.062500	-124.494041
29437.500000	-124.307556
29460.937500	-124.207420
29484.375000	-124.286148
29507.812500	-124.337173
29531.250000	-124.438400
29554.687500	-124.456306
29578.125000	-124.344879
29601.562500	-124.273438
29625.000000	-124.290405
29648.437500	-124.372261
29671.875000	-124.478767
29695.312500	-124.458389
29718.750000	-124.540131
29742.187500	-124.578346
29765.625000	-124.543266
29789.062500	-124.504402
29812.500000	-124.499863
29835.937500	-124.569443
29859.375000	-124.548180
29882.812500	-124.575600
29906.250000	-124.572510
29929.687500	-124.485023
29953.125000	-124.479591
29976.562500	-124.440613
30000.000000	-124.259346
30023.437500	-124.568336
30046.875000	-124.635887
30070.312500	-124.555229
30093.750000	-124.514290
30117.187500	-124.574448
30140.625000	-124.676224
30164.062500	-124.656059
30187.500000	-124.589241
30210.937500	-124.590157
30234.375000	-124.592506
30257.812500	-124.664589
30281.250000	-124.527863
30304.687500	-124.591873
30328.125000	-124.666992
30351.562500	-124.623222
30375.000000	-124.627480
30398.437500	-124.547310
30421.875000	-124.567863
30445.312500	-124.585945
30468.750000	-124.655579
30492.187500	-124.551193
30515.625000	-124.647987
30539.062500	-124.716980
30562.500000	-124.759193
30585.937500	-124.609253
30609.375000	-124.570717
30632.812500	-124.581390
30656.250000	-124.568611
30679.687500	-124.660927
30703.125000	-124.701988
30726.562500	-124.685738
30750.000000	-124.574188
30773.437500	-124.566086
30796.875000	-124.674126
30820.312500	-124.680603
30843.750000	-124.655212
30867.187500	-124.548515
30890.625000	-124.546349
30914.062500	-124.596245
30937.500000	-124.632538
30960.937500	-124.632019
30984.375000	-124.658508
31007.812500	-124.644463
31031.250000	-124.548393
31054.687500	-124.454178
31078.125000	-124.618240
31101.562500	-124.674622
31125.000000	-124.618629
31148.437500	-124.660683
31171.875000	-124.714722
31195.312500	-124.657516
31218.750000	-124.714165
31242.187500	-124.761627
31265.625000	-124.783455
31289.062500	-124.674461
31312.500000	-124.623322
31335.937500	-124.788498
31359.375000	-124.683319
31382.812500	-124.721153
31406.250000	-124.741600
31429.687500	-124.646172
31453.125000	-124.706085
31476.562500	-124.444801
31500.000000	-123.911835
31523.437500	-124.446495
31546.875000	-124.625427
31570.312500	-124.657295
31593.750000	-124.594482
31617.187500	-124.608025
31640.625000	-124.716225
31664.062500	-124.770203
31687.500000	-124.769081
31710.937500	-124.672325
31734.375000	-124.661667
31757.812500	-124.671028
31781.250000	-124.698059
31804.687500	-124.691826
31828.125000	-124.675583
31851.562500	-124.720383
31875.000000	-124.724419
31898.437500	-124.764038
31921.875000	-124.633171
31945.312500	-124.650726
31968.750000	-124.729141
31992.187500	-124.749748
32015.625000	-124.767784
32039.062500	-124.729561
32062.500000	-124.714859
32085.937500	-124.703224
32109.375000	-124.761726
32132.812500	-124.783844
32156.250000	-124.704964
32179.687500	-124.656517
32203.125000	-124.667625
32226.562500	-124.717575
32250.000000	-124.647194
32273.437500	-124.710579
32296.875000	-124.710220
32320.312500	-124.723633
32343.750000	-124.738274
32367.187500	-124.697121
32390.625000	-124.687424
32414.062500	-124.722656
32437.500000	-124.801994
32460.937500	-124.792755
32484.375000	-124.874603
32507.812500	-124.755661
32531.250000	-124.773087
32554.687500	-124.827629
32578.125000	-124.799408
32601.562500	-124.792961
32625.000000	-124.775742
32648.437500	-124.735725
32671.875000	-124.837654
32695.312500	-124.794289
32718.750000	-124.828560
32742.187500	-124.759399
32765.625000	-124.677559
32789.062500	-124.647408
32812.500000	-124.664017
32835.937500	-124.841667
32859.375000	-124.854431
32882.812500	-124.799568
32906.250000	-124.737236
32929.687500	-124.674561
32953.125000	-124.728844
32976.562500	-124.578255
33000.000000	-124.031189
33023.437500	-124.629189
33046.875000	-124.873947
33070.312500	-124.773560
33093.750000	-124.862747
33117.187500	-124.897270
33140.625000	-124.747849
33164.062500	-124.784706
33187.500000	-124.805824
33210.937500	-124.824570
33234.375000	-124.753479
33257.812500	-124.670937
33281.250000	-124.759712
33304.687500	-124.823044
33328.125000	-124.809570
33351.562500	-124.728386
33375.000000	-124.889175
33398.437500	-124.886391
33421.875000	-124.759552
33445.312500	-124.752411
33468.750000	-124.823936
33492.187500	-124.777359
33515.625000	-124.756813
33539.062500	-124.752846
33562.500000	-124.726913
33585.937500	-124.703575
33609.375000	-124.737831
33632.812500	-124.770447
33656.250000	-124.762085
33679.687500	-124.749580
33703.125000	-124.781334
33726.562500	-124.766121
33750.000000	-124.726349
33773.437500	-124.759598
33796.875000	-124.757072
33820.312500	-124.629723
33843.750000	-124.603264
33867.187500	-124.710304
33890.625000	-124.799164
33914.062500	-124.827644
33937.500000	-124.854507
33960.937500	-124.816177
33984.375000	-124.745193
34007.812500	-124.746887
34031.250000	-124.842529
34054.687500	-124.801414
34078.125000	-124.891785
34101.562500	-124.853317
34125.000000	-124.811569
34148.437500	-124.774994
34171.875000	-124.827858
34195.312500	-124.830879
34218.750000	-124.859451
34242.187500	-124.824585
34265.625000	-124.785362
34289.062500	-124.779831
34312.500000	-124.812218
34335.937500	-124.807449
34359.375000	-124.837860
34382.812500	-124.815437
34406.250000	-124.824394
34429.687500	-124.799660
34453.125000	-124.869423
34476.562500	-124.754288
34500.000000	-124.388832
34523.437500	-124.696419
34546.875000	-124.817131
34570.312500	-124.842148
34593.750000	-124.913353
34617.187500	-124.838982
34640.625000	-124.870872
34664.062500	-124.916039
34687.500000	-124.900932
34710.937500	-124.880432
34734.375000	-124.858284
34757.812500	-124.841125
34781.250000	-124.965248
34804.687500	-124.948494
34828.125000	-124.893486
34851.562500	-124.879265
34875.000000	-124.892036
34898.437500	-124.867889
34921.875000	-124.901596
34945.312500	-124.910065
34968.750000	-124.875435
34992.187500	-124.902473
35015.625000	-124.926186
35039.062500	-124.864655
35062.500000	-124.956810
35085.937500	-124.986893
35109.375000	-124.941887
35132.812500	-124.945686
35156.250000	-124.903183
35179.687500	-124.800972
35203.125000	-124.857994
35226.562500	-124.980431
35250.000000	-124.937912
35273.437500	-124.815643
35296.875000	-124.823151
35320.312500	-124.844604
35343.750000	-124.795433
35367.187500	-124.840889
35390.625000	-124.879478
35414.062500	-124.890312
35437.500000	-124.890930
35460.937500	-124.932884
35484.375000	-124.920586
35507.812500	-124.927536
35531.250000	-124.889496
35554.687500	-124.986336
35578.125000	-124.972000
35601.562500	-124.936722
35625.000000	-124.964523
35648.437500	-124.990913
35671.875000	-125.072365
35695.312500	-124.973061
35718.750000	-124.925453
35742.187500	-124.866585
35765.625000	-124.934860
35789.062500	-124.941833
35812.500000	-124.909363
35835.937500	-124.928268
35859.375000	-124.900726
35882.812500	-124.871300
35906.250000	-124.830467
35929.687500	-124.897041
35953.125000	-124.985916
35976.562500	-125.022911
36000.000000	-124.841446
36023.437500	-124.962173
36046.875000	-124.944511
36070.312500	-124.890617
36093.750000	-124.942253
36117.187500	-124.959671
36140.625000	-124.978821
36164.062500	-124.990509
36187.500000	-125.001167
36210.937500	-124.969803
36234.375000	-124.976585
36257.812500	-124.956123
36281.250000	-124.947395
36304.687500	-124.841667
36328.125000	-124.897285
36351.562500	-125.058075
36375.000000	-125.042496
36398.437500	-125.021034
36421.875000	-125.007942
36445.312500	-125.057961
36468.750000	-125.030357
36492.187500	-124.961716
36515.625000	-124.938217
36539.062500	-124.972038
36562.500000	-124.982574
36585.937500	-124.979431
36609.375000	-124.990768
36632.812500	-124.912048
36656.250000	-124.885162
36679.687500	-124.946877
36703.125000	-125.024956
36726.562500	-125.114227
36750.000000	-125.093079
36773.437500	-125.051819
36796.875000	-125.028137
36820.312500	-125.080688
36843.750000	-124.988373
36867.187500	-125.009995
36890.625000	-124.864738
36914.062500	-124.923294
36937.500000	-125.054214
36960.937500	-124.999252
36984.375000	-124.928337
37007.812500	-125.028053
37031.250000	-125.030670
37054.687500	-124.976593
37078.125000	-124.981354
37101.562500	-125.113823
37125.000000	-125.022591
37148.437500	-124.996841
37171.875000	-125.041000
37195.312500	-125.048782
37218.750000	-124.990463
37242.187500	-125.043831
37265.625000	-125.028282
37289.062500	-124.986839
37312.500000	-124.981575
37335.937500	-125.035088
37359.375000	-125.003311
37382.812500	-124.961685
37406.250000	-125.048813
37429.687500	-125.075508
37453.125000	-125.041084
37476.562500	-125.053001
37500.000000	-125.113098
37523.437500	-125.099770
37546.875000	-125.062614
37570.312500	-125.022522
37593.750000	-125.027954
37617.187500	-124.996490
37640.625000	-124.997101
37664.062500	-125.041260
37687.500000	-125.047127
37710.937500	-125.084206
37734.375000	-125.095840
37757.812500	-125.063210
37781.250000	-124.994225
37804.687500	-124.930664
37828.125000	-124.915779
37851.562500	-124.904305
37875.000000	-125.021034
37898.437500	-125.045235
37921.875000	-124.960358
37945.312500	-125.038513
37968.750000	-124.930252
37992.187500	-124.922256
38015.625000	-124.901199
38039.062500	-124.735657
38062.500000	-124.636414
38085.937500	-124.584808
38109.375000	-124.506477
38132.812500	-124.571907
38156.250000	-124.448074
38179.687500	-124.145622
38203.125000	-123.895493
38226.562500	-123.507019
38250.000000	-122.646347
38273.437500	-121.630692
38296.875000	-120.802437
38320.312500	-120.056526
38343.750000	-120.707115
38367.187500	-121.515129
38390.625000	-121.287895
38414.062500	-121.295166
38437.500000	-121.292534
38460.937500	-121.646347
38484.375000	-121.831314
38507.812500	-121.643929
38531.250000	-122.137711
38554.687500	-122.439972
38578.125000	-122.687897
38601.562500	-122.727272
38625.000000	-122.896042
38648.437500	-123.193230
38671.875000	-123.524040
38695.312500	-123.612381
38718.750000	-123.614799
38742.187500	-123.644035
38765.625000	-123.744499
38789.062500	-123.892525
38812.500000	-123.897842
38835.937500	-123.923401
38859.375000	-124.083282
38882.812500	-124.127937
38906.250000	-124.241806
38929.687500	-124.462502
38953.125000	-124.718300
38976.562500	-124.720901
39000.000000	-124.602371
39023.437500	-124.830528
39046.875000	-124.892662
39070.312500	-124.849327
39093.750000	-124.959106
39117.187500	-125.017570
39140.625000	-124.919594
39164.062500	-124.855896
39187.500000	-124.786644
39210.937500	-124.807693
39234.375000	-124.866722
39257.812500	-124.869324
39281.250000	-124.959053
39304.687500	-124.896790
39328.125000	-124.951363
39351.562500	-125.106819
39375.000000	-125.099731
39398.437500	-124.998405
39421.875000	-124.993195
39445.312500	-125.018845
39468.750000	-125.015945
39492.187500	-124.873451
39515.625000	-124.959915
39539.062500	-125.124344
39562.500000	-124.999268
39585.937500	-124.875160
39609.375000	-124.959572
39632.812500	-125.045807
39656.250000	-125.081520
39679.687500	-124.999870
39703.125000	-125.050102
39726.562500	-125.172035
39750.000000	-125.068192
39773.437500	-125.002396
39796.875000	-125.070053
39820.312500	-125.042870
39843.750000	-125.010521
39867.187500	-125.129532
39890.625000	-125.131996
39914.062500	-125.184364
39937.500000	-125.135254
39960.937500	-125.060883
39984.375000	-125.051193
40007.812500	-125.169914
40031.250000	-125.165894
40054.687500	-125.218025
40078.125000	-125.268631
40101.562500	-125.240196
40125.000000	-125.238831
40148.437500	-125.155258
40171.875000	-125.160385
40195.312500	-125.102333
40218.750000	-125.167992
40242.187500	-124.628822
40265.625000	-122.806656
40289.062500	-124.174767
40312.500000	-125.177376
40335.937500	-125.213028
40359.375000	-125.219803
40382.812500	-125.182266
40406.250000	-125.119560
40429.687500	-125.059227
40453.125000	-125.114090
40476.562500	-125.067749
40500.000000	-124.752159
40523.437500	-125.128700
40546.875000	-125.152657
40570.312500	-125.131401
40593.750000	-125.147461
40617.187500	-125.108994
40640.625000	-125.170570
40664.062500	-125.181648
40687.500000	-125.033051
40710.937500	-125.096771
40734.375000	-125.273636
40757.812500	-125.319565
40781.250000	-125.191582
40804.687500	-125.161957
40828.125000	-125.163849
40851.562500	-125.116173
40875.000000	-125.182816
40898.437500	-125.166748
40921.875000	-125.178589
40945.312500	-125.181351
40968.750000	-125.303116
40992.187500	-125.326904
41015.625000	-125.176468
41039.062500	-125.216888
41062.500000	-125.211838
41085.937500	-125.176941
41109.375000	-125.224533
41132.812500	-125.239388
41156.250000	-125.366096
41179.687500	-125.263206
41203.125000	-125.170784
41226.562500	-125.209930
41250.000000	-125.316566
41273.437500	-125.328293
41296.875000	-125.340828
41320.312500	-125.260582
41343.750000	-125.293869
41367.187500	-125.294739
41390.625000	-125.436401
41414.062500	-125.420143
41437.500000	-125.345100
41460.937500	-125.330963
41484.375000	-125.299126
41507.812500	-125.367409
41531.250000	-125.400764
41554.687500	-125.460098
41578.125000	-125.376839
41601.562500	-125.223579
41625.000000	-125.329597
41648.437500	-125.359444
41671.875000	-125.315170
41695.312500	-125.369728
41718.750000	-125.386421
41742.187500	-125.311302
41765.625000	-125.343437
41789.062500	-125.416641
41812.500000	-125.460930
41835.937500	-125.453918
41859.375000	-125.422356
41882.812500	-125.399475
41906.250000	-125.433907
41929.687500	-125.479095
41953.125000	-125.484474
41976.562500	-125.340485
42000.000000	-124.913445
42023.437500	-125.301727
42046.875000	-125.453033
42070.312500	-125.514366
42093.750000	-125.465248
42117.187500	-125.536949
42140.625000	-125.515717
42164.062500	-125.527863
42187.500000	-125.383629
42210.937500	-125.406380
42234.375000	-125.447083
42257.812500	-125.593201
42281.250000	-125.606758
42304.687500	-125.478966
42328.125000	-125.503075
42351.562500	-125.482346
42375.000000	-125.489578
42398.437500	-125.580353
42421.875000	-125.568710
42445.312500	-125.560371
42468.750000	-125.551422
42492.187500	-125.595184
42515.625000	-125.648346
42539.062500	-125.666733
42562.500000	-125.608856
42585.937500	-125.672127
42609.375000	-125.695656
42632.812500	-125.655136
42656.250000	-125.657890
42679.687500	-125.666138
42703.125000	-125.709099
42726.562500	-125.789001
42750.000000	-125.708565
42773.437500	-125.720467
42796.875000	-125.777222
42820.312500	-125.731598
42843.750000	-125.720566
42867.187500	-125.756706
42890.625000	-125.782951
42914.062500	-125.847023
42937.500000	-125.734032
42960.937500	-125.660736
42984.375000	-125.679619
43007.812500	-125.822639
43031.250000	-125.818649
43054.687500	-125.870232
43078.125000	-125.837921
43101.562500	-125.795868
43125.000000	-125.862175
43148.437500	-125.869225
43171.875000	-125.844971
43195.312500	-125.861771
43218.750000	-125.830940
43242.187500	-125.891876
43265.625000	-126.007851
43289.062500	-125.955399
43312.500000	-125.933746
43335.937500	-125.928078
43359.375000	-125.927971
43382.812500	-125.969887
43406.250000	-125.916634
43429.687500	-125.927528
43453.125000	-125.929749
43476.562500	-125.797493
43500.000000	-125.334908
43523.437500	-125.799255
43546.875000	-125.998909
43570.312500	-126.020874
43593.750000	-125.998108
43617.187500	-125.975365
43640.625000	-126.016693
43664.062500	-126.120850
43687.500000	-126.137573
43710.937500	-126.048836
43734.375000	-126.126495
43757.812500	-126.114975
43781.250000	-126.153923
43804.687500	-126.183075
43828.125000	-126.238358
43851.562500	-126.361328
43875.000000	-126.201118
43898.437500	-126.100090
43921.875000	-126.247650
43945.312500	-126.255035
43968.750000	-126.170616
43992.187500	-126.252525
44015.625000	-126.273804
44039.062500	-126.344589
44062.500000	-126.306778
44085.937500	-126.304726
44109.375000	-126.419441
44132.812500	-126.418510
44156.250000	-126.375122
44179.687500	-126.371544
44203.125000	-126.417618
44226.562500	-126.449860
44250.000000	-126.464676
44273.437500	-126.528915
44296.875000	-126.540482
44320.312500	-126.539597
44343.750000	-126.524147
44367.187500	-126.500381
44390.625000	-126.512718
44414.062500	-126.446518
44437.500000	-126.446098
44460.937500	-126.505028
44484.375000	-126.508034
44507.812500	-126.538040
44531.250000	-126.611931
44554.687500	-126.569168
44578.125000	-126.630539
44601.562500	-126.707718
44625.000000	-126.650284
44648.437500	-126.561432
44671.875000	-126.585030
44695.312500	-126.659286
44718.750000	-126.646942
44742.187500	-126.742523
44765.625000	-126.651703
44789.062500	-126.704567
44812.500000	-126.802895
44835.937500	-126.747375
44859.375000	-126.631874
44882.812500	-126.703949
44906.250000	-126.860214
44929.687500	-126.904121
44953.125000	-126.809448
44976.562500	-126.718361
45000.000000	-126.379852
45023.437500	-126.807716
45046.875000	-127.000923
45070.312500	-126.898903
45093.750000	-127.057541
45117.187500	-127.113029
45140.625000	-127.025833
45164.062500	-127.002762
45187.500000	-127.114464
45210.937500	-127.173225
45234.375000	-127.049850
45257.812500	-126.996086
45281.250000	-127.039696
45304.687500	-127.137444
45328.125000	-127.243378
45351.562500	-127.210541
45375.000000	-127.131348
45398.437500	-127.283989
45421.875000	-127.276283
45445.312500	-127.299156
45468.750000	-127.257271
45492.187500	-127.249016
45515.625000	-127.280327
45539.062500	-127.351997
45562.500000	-127.268150
45585.937500	-127.393288
45609.375000	-127.447258
45632.812500	-127.418259
45656.250000	-127.284698
45679.687500	-127.482239
45703.125000	-127.693504
45726.562500	-127.563988
45750.000000	-127.497307
45773.437500	-127.618042
45796.875000	-127.659187
45820.312500	-127.585442
45843.750000	-127.649918
45867.187500	-127.635376
45890.625000	-127.593491
45914.062500	-127.607491
45937.500000	-127.636139
45960.937500	-127.585861
45984.375000	-127.558159
46007.812500	-127.659927
46031.250000	-127.826210
46054.687500	-127.664619
46078.125000	-127.732750
46101.562500	-127.955673
46125.000000	-127.986519
46148.437500	-127.703201
46171.875000	-127.650719
46195.312500	-127.951103
46218.750000	-127.917252
46242.187500	-127.201912
46265.625000	-127.404785
46289.062500	-127.945015
46312.500000	-128.042450
46335.937500	-127.898285
46359.375000	-127.758339
46382.812500	-128.062485
46406.250000	-128.149826
46429.687500	-128.121109
46453.125000	-128.130753
46476.562500	-128.029175
46500.000000	-127.908943
46523.437500	-128.206390
46546.875000	-128.237625
46570.312500	-128.216553
46593.750000	-128.306335
46617.187500	-128.200287
46640.625000	-128.248352
46664.062500	-128.344482
46687.500000	-128.347305
46710.937500	-128.171722
46734.375000	-128.274017
46757.812500	-128.441483
46781.250000	-128.310196
46804.687500	-127.079033
46828.125000	-126.916565
46851.562500	-128.389511
46875.000000	-128.449692
46898.437500	-128.366257
46921.875000	-128.034119
46945.312500	-128.400513
46968.750000	-128.523483
46992.187500	-128.554977
47015.625000	-128.467667
47039.062500	-128.506516
47062.500000	-128.646332
47085.937500	-128.625549
47109.375000	-128.602844
47132.812500	-128.633652
47156.250000	-128.671082
47179.687500	-128.632980
47203.125000	-128.650787
47226.562500	-128.704880
47250.000000	-128.716309
47273.437500	-128.625809
47296.875000	-128.686005
47320.312500	-128.674210
47343.750000	-128.709854
47367.187500	-128.799927
47390.625000	-128.775955
47414.062500	-128.765945
47437.500000	-128.786926
47460.937500	-128.756287
47484.375000	-128.774612
47507.812500	-128.860916
47531.250000	-128.892242
47554.687500	-128.876572
47578.125000	-128.812363
47601.562500	-128.789993
47625.000000	-128.813736
47648.437500	-128.862259
47671.875000	-128.896103
47695.312500	-128.833069
47718.750000	-128.819077
47742.187500	-128.857407
47765.625000	-128.900803
47789.062500	-128.939514
47812.500000	-128.948517
47835.937500	-128.845306
47859.375000	-128.870316
47882.812500	-128.832428
47906.250000	-128.853348
47929.687500	-128.918777
47953.125000	-128.936234
47976.562500	-128.866592
