주파수 (Hz)	레벨 (dB)
23.437500	-100.731987
46.875000	-93.525887
70.312500	-81.848633
93.750000	-73.394722
117.187500	-68.368736
140.625000	-67.483368
164.062500	-68.161613
187.500000	-65.724831
210.937500	-64.356331
234.375000	-62.070938
257.812500	-64.004539
281.250000	-62.742428
304.687500	-61.679310
328.125000	-60.669098
351.562500	-61.875839
375.000000	-63.418274
398.437500	-64.876984
421.875000	-64.096657
445.312500	-59.647465
468.750000	-58.232571
492.187500	-61.903385
515.625000	-67.712494
539.062500	-59.993355
562.500000	-57.028130
585.937500	-64.761757
609.375000	-62.291721
632.812500	-60.571117
656.250000	-65.412590
679.687500	-64.743690
703.125000	-61.417652
726.562500	-64.618698
750.000000	-64.743423
773.437500	-70.936523
796.875000	-73.873497
820.312500	-66.497543
843.750000	-65.505196
867.187500	-64.462875
890.625000	-63.092461
914.062500	-71.484756
937.500000	-71.055824
960.937500	-75.723984
984.375000	-73.538872
1007.812500	-75.651382
1031.250000	-83.022301
1054.687500	-82.682976
1078.125000	-84.589493
1101.562500	-80.951729
1125.000000	-82.079796
1148.437500	-86.988441
1171.875000	-81.433853
1195.312500	-83.989662
1218.750000	-87.872459
1242.187500	-80.833893
1265.625000	-82.187759
1289.062500	-90.376358
1312.500000	-84.371384
1335.937500	-83.420204
1359.375000	-90.074829
1382.812500	-82.892159
1406.250000	-78.558899
1429.687500	-84.068855
1453.125000	-89.797081
1476.562500	-85.782959
1500.000000	-85.409698
1523.437500	-93.896568
1546.875000	-92.925575
1570.312500	-88.597191
1593.750000	-91.890297
1617.187500	-96.498924
1640.625000	-90.348534
1664.062500	-85.134865
1687.500000	-85.565895
1710.937500	-94.329643
1734.375000	-88.966965
1757.812500	-79.270576
1781.250000	-77.217987
1804.687500	-86.040901
1828.125000	-99.118393
1851.562500	-93.090424
1875.000000	-84.335648
1898.437500	-86.279396
1921.875000	-98.772247
1945.312500	-94.104912
1968.750000	-88.668694
1992.187500	-84.216621
2015.625000	-88.752724
2039.062500	-103.326714
2062.500000	-103.145012
2085.937500	-100.417770
2109.375000	-98.156227
2132.812500	-101.728104
2156.250000	-108.027023
2179.687500	-98.923416
2203.125000	-92.575943
2226.562500	-93.358192
2250.000000	-91.573692
2273.437500	-97.892517
2296.875000	-107.379974
2320.312500	-103.267403
2343.750000	-91.047752
2367.187500	-88.713448
2390.625000	-94.679214
2414.062500	-104.513382
2437.500000	-107.748627
2460.937500	-106.101875
2484.375000	-95.233658
2507.812500	-91.266533
2531.250000	-94.136772
2554.687500	-101.860977
2578.125000	-109.408195
2601.562500	-106.882843
2625.000000	-104.823502
2648.437500	-93.326370
2671.875000	-89.143295
2695.312500	-93.639656
2718.750000	-107.029022
2742.187500	-108.833611
2765.625000	-105.879471
2789.062500	-99.926926
2812.500000	-95.238144
2835.937500	-92.253708
2859.375000	-94.481453
2882.812500	-102.818100
2906.250000	-107.256538
2929.687500	-111.413681
2953.125000	-111.646675
2976.562500	-110.854378
3000.000000	-101.640770
3023.437500	-99.944206
3046.875000	-108.573830
3070.312500	-112.089058
3093.750000	-106.917824
3117.187500	-107.607346
3140.625000	-108.723244
3164.062500	-106.717499
3187.500000	-105.984756
3210.937500	-104.658386
3234.375000	-110.913681
3257.812500	-114.652107
3281.250000	-114.467247
3304.687500	-107.762695
3328.125000	-98.469215
3351.562500	-98.577553
3375.000000	-103.023384
3398.437500	-102.548889
3421.875000	-106.049591
3445.312500	-113.641281
3468.750000	-115.832130
3492.187500	-112.578560
3515.625000	-105.932274
3539.062500	-102.610176
3562.500000	-99.684364
3585.937500	-97.216988
3609.375000	-103.651062
3632.812500	-110.814804
3656.250000	-114.633728
3679.687500	-116.149124
3703.125000	-114.756470
3726.562500	-114.725502
3750.000000	-115.844109
3773.437500	-112.776367
3796.875000	-110.907021
3820.312500	-102.732979
3843.750000	-102.320534
3867.187500	-110.194519
3890.625000	-116.157951
3914.062500	-116.765854
3937.500000	-116.045570
3960.937500	-111.560524
3984.375000	-103.578911
4007.812500	-105.368248
4031.250000	-115.011948
4054.687500	-113.973061
4078.125000	-113.398705
4101.562500	-115.510391
4125.000000	-117.375908
4148.437500	-117.548180
4171.875000	-117.365051
4195.312500	-116.546410
4218.750000	-115.543945
4242.187500	-113.554779
4265.625000	-114.501030
4289.062500	-116.480247
4312.500000	-112.639160
4335.937500	-107.823021
4359.375000	-111.305916
4382.812500	-116.622215
4406.250000	-117.750938
4429.687500	-117.750549
4453.125000	-117.072281
4476.562500	-112.806992
4500.000000	-107.500526
4523.437500	-105.785202
4546.875000	-110.075180
4570.312500	-112.508369
4593.750000	-109.950798
4617.187500	-114.064957
4640.625000	-117.600258
4664.062500	-118.160149
4687.500000	-118.310242
4710.937500	-118.371658
4734.375000	-118.199432
4757.812500	-116.691727
4781.250000	-116.386574
4804.687500	-118.090805
4828.125000	-118.656860
4851.562500	-118.720993
4875.000000	-118.601639
4898.437500	-118.344780
4921.875000	-118.437454
4945.312500	-118.535538
4968.750000	-118.942177
4992.187500	-119.096939
5015.625000	-118.863838
5039.062500	-118.441124
5062.500000	-118.556969
5085.937500	-118.595970
5109.375000	-118.612877
5132.812500	-118.512001
5156.250000	-118.376846
5179.687500	-118.131607
5203.125000	-118.409172
5226.562500	-118.650780
5250.000000	-118.893623
5273.437500	-118.872917
5296.875000	-118.867798
5320.312500	-118.978668
5343.750000	-118.788078
5367.187500	-118.541229
5390.625000	-118.679291
5414.062500	-118.814240
5437.500000	-118.457916
5460.937500	-117.580841
5484.375000	-117.796066
5507.812500	-118.567108
5531.250000	-118.706825
5554.687500	-119.157005
5578.125000	-118.902245
5601.562500	-118.589584
5625.000000	-119.016945
5648.437500	-119.038017
5671.875000	-118.846718
5695.312500	-118.811028
5718.750000	-118.767082
5742.187500	-119.176384
5765.625000	-118.977806
5789.062500	-118.980354
5812.500000	-119.051697
5835.937500	-118.565178
5859.375000	-118.809875
5882.812500	-118.944366
5906.250000	-118.968803
5929.687500	-119.114922
5953.125000	-119.129105
5976.562500	-118.826935
6000.000000	-118.516548
6023.437500	-119.012711
6046.875000	-118.961929
6070.312500	-118.858871
6093.750000	-119.043877
6117.187500	-119.297089
6140.625000	-119.015793
6164.062500	-117.167870
6187.500000	-116.379738
6210.937500	-118.617439
6234.375000	-119.098206
6257.812500	-119.051552
6281.250000	-118.977242
6304.687500	-118.768929
6328.125000	-118.868484
6351.562500	-118.913422
6375.000000	-118.751556
6398.437500	-118.774208
6421.875000	-118.830093
6445.312500	-118.211578
6468.750000	-118.015320
6492.187500	-116.760895
6515.625000	-117.490677
6539.062500	-119.077812
6562.500000	-119.090164
6585.937500	-118.832176
6609.375000	-118.855560
6632.812500	-118.819176
6656.250000	-118.727730
6679.687500	-118.712082
6703.125000	-118.777550
6726.562500	-118.935471
6750.000000	-118.988541
6773.437500	-118.564911
6796.875000	-118.495377
6820.312500	-118.760567
6843.750000	-118.830078
6867.187500	-118.755707
6890.625000	-118.627174
6914.062500	-118.746170
6937.500000	-118.688179
6960.937500	-118.944519
6984.375000	-118.936325
7007.812500	-118.561432
7031.250000	-118.219292
7054.687500	-118.562027
7078.125000	-118.969902
7101.562500	-119.168915
7125.000000	-118.796593
7148.437500	-118.597534
7171.875000	-118.891975
7195.312500	-118.972450
7218.750000	-118.975220
7242.187500	-119.013023
7265.625000	-118.979897
7289.062500	-118.387650
7312.500000	-118.296494
7335.937500	-118.575813
7359.375000	-118.759422
7382.812500	-118.740730
7406.250000	-118.545822
7429.687500	-118.625572
7453.125000	-118.588669
7476.562500	-118.462814
7500.000000	-117.625816
7523.437500	-118.240761
7546.875000	-118.955704
7570.312500	-119.000877
7593.750000	-118.862709
7617.187500	-118.599228
7640.625000	-118.811768
7664.062500	-118.934853
7687.500000	-118.988617
7710.937500	-118.908165
7734.375000	-119.032990
7757.812500	-118.932251
7781.250000	-118.737640
7804.687500	-118.748444
7828.125000	-118.973671
7851.562500	-118.998306
7875.000000	-118.716026
7898.437500	-118.783379
7921.875000	-118.878136
7945.312500	-118.996216
7968.750000	-118.931686
7992.187500	-119.081856
8015.625000	-119.123756
8039.062500	-118.991920
8062.500000	-118.932785
8085.937500	-118.981949
8109.375000	-118.944107
8132.812500	-118.952545
8156.250000	-119.026230
8179.687500	-119.200508
8203.125000	-119.125084
8226.562500	-119.097343
8250.000000	-119.227921
8273.437500	-119.217140
8296.875000	-119.087769
8320.312500	-119.041702
8343.750000	-119.102600
8367.187500	-118.813263
8390.625000	-118.151772
8414.062500	-117.298187
8437.500000	-117.221191
8460.937500	-118.024841
8484.375000	-118.571030
8507.812500	-118.851494
8531.250000	-119.183167
8554.687500	-119.262535
8578.125000	-119.285423
8601.562500	-119.339615
8625.000000	-119.480011
8648.437500	-119.540474
8671.875000	-119.594177
8695.312500	-119.511642
8718.750000	-119.634186
8742.187500	-119.612289
8765.625000	-119.592232
8789.062500	-119.557938
8812.500000	-119.632759
8835.937500	-119.710831
8859.375000	-119.688805
8882.812500	-119.602829
8906.250000	-119.493065
8929.687500	-119.484962
8953.125000	-119.612801
8976.562500	-118.396790
9000.000000	-116.218353
9023.437500	-118.485558
9046.875000	-119.538460
9070.312500	-119.500702
9093.750000	-119.438820
9117.187500	-119.716743
9140.625000	-119.770882
9164.062500	-119.754547
9187.500000	-119.743645
9210.937500	-119.883751
9234.375000	-119.813416
9257.812500	-119.753349
9281.250000	-119.733650
9304.687500	-119.762177
9328.125000	-119.869041
9351.562500	-119.970726
9375.000000	-119.947983
9398.437500	-119.951920
9421.875000	-119.927101
9445.312500	-120.007660
9468.750000	-120.156967
9492.187500	-120.023216
9515.625000	-120.044922
9539.062500	-120.079865
9562.500000	-120.030792
9585.937500	-120.032051
9609.375000	-119.958435
9632.812500	-120.075241
9656.250000	-120.206879
9679.687500	-120.175438
9703.125000	-120.149231
9726.562500	-120.152885
9750.000000	-120.196426
9773.437500	-120.155975
9796.875000	-120.176788
9820.312500	-120.339592
9843.750000	-120.187157
9867.187500	-120.211662
9890.625000	-120.233650
9914.062500	-120.318184
9937.500000	-120.249100
9960.937500	-120.140961
9984.375000	-120.157837
10007.812500	-120.149788
10031.250000	-120.186073
10054.687500	-120.258980
10078.125000	-120.333229
10101.562500	-120.446411
10125.000000	-120.436539
10148.437500	-120.433632
10171.875000	-120.458725
10195.312500	-120.458176
10218.750000	-120.452110
10242.187500	-120.463364
10265.625000	-120.476723
10289.062500	-120.400688
10312.500000	-120.412376
10335.937500	-120.554504
10359.375000	-120.569489
10382.812500	-120.503136
10406.250000	-120.510696
10429.687500	-120.577957
10453.125000	-120.538986
10476.562500	-118.431824
10500.000000	-115.186188
10523.437500	-118.481071
10546.875000	-120.639946
10570.312500	-120.603424
10593.750000	-120.593750
10617.187500	-120.566277
10640.625000	-120.631416
10664.062500	-120.717056
10687.500000	-120.734848
10710.937500	-120.736763
10734.375000	-120.691132
10757.812500	-120.694969
10781.250000	-120.745995
10804.687500	-120.860405
10828.125000	-120.755829
10851.562500	-120.681473
10875.000000	-120.786690
10898.437500	-120.834633
10921.875000	-120.727165
10945.312500	-120.723282
10968.750000	-120.585571
10992.187500	-120.282654
11015.625000	-120.164536
11039.062500	-120.302399
11062.500000	-120.425995
11085.937500	-120.443672
11109.375000	-120.618843
11132.812500	-120.691284
11156.250000	-120.836189
11179.687500	-120.834618
11203.125000	-120.843933
11226.562500	-120.915733
11250.000000	-120.915199
11273.437500	-120.854324
11296.875000	-120.971931
11320.312500	-120.993370
11343.750000	-121.005577
11367.187500	-120.860863
11390.625000	-120.879082
11414.062500	-120.796104
11437.500000	-120.617241
11460.937500	-120.467346
11484.375000	-120.517830
11507.812500	-119.530235
11531.250000	-119.607582
11554.687500	-120.622520
11578.125000	-120.672394
11601.562500	-120.786659
11625.000000	-120.639999
11648.437500	-120.343437
11671.875000	-120.503319
11695.312500	-120.598122
11718.750000	-120.361000
11742.187500	-119.856552
11765.625000	-119.704651
11789.062500	-119.813881
11812.500000	-120.033333
11835.937500	-120.472374
11859.375000	-120.563286
11882.812500	-120.476089
11906.250000	-120.560440
11929.687500	-120.914680
11953.125000	-121.024590
11976.562500	-119.101105
12000.000000	-115.816544
12023.437500	-119.052078
12046.875000	-121.107834
12070.312500	-121.142502
12093.750000	-121.271339
12117.187500	-121.344299
12140.625000	-121.418022
12164.062500	-121.337090
12187.500000	-121.303185
12210.937500	-121.325287
12234.375000	-121.378731
12257.812500	-121.242607
12281.250000	-121.262169
12304.687500	-121.227631
12328.125000	-120.977654
12351.562500	-121.120003
12375.000000	-121.293396
12398.437500	-121.326813
12421.875000	-121.334122
12445.312500	-121.407532
12468.750000	-121.340149
12492.187500	-121.209206
12515.625000	-121.172211
12539.062500	-121.211021
12562.500000	-121.102531
12585.937500	-120.624001
12609.375000	-119.815895
12632.812500	-119.293739
12656.250000	-119.463432
12679.687500	-120.073242
12703.125000	-120.327065
12726.562500	-120.685043
12750.000000	-121.281815
12773.437500	-121.440849
12796.875000	-121.375549
12820.312500	-121.431671
12843.750000	-121.535126
12867.187500	-121.499580
12890.625000	-121.524162
12914.062500	-121.583733
12937.500000	-121.687256
12960.937500	-121.672150
12984.375000	-121.701355
13007.812500	-121.764748
13031.250000	-121.772995
13054.687500	-121.785980
13078.125000	-121.789925
13101.562500	-121.824196
13125.000000	-121.843567
13148.437500	-121.899307
13171.875000	-121.812981
13195.312500	-121.733398
13218.750000	-121.798317
13242.187500	-121.755020
13265.625000	-121.863548
13289.062500	-121.892746
13312.500000	-121.898781
13335.937500	-121.829956
13359.375000	-121.852478
13382.812500	-121.837769
13406.250000	-121.732597
13429.687500	-121.847054
13453.125000	-122.019501
13476.562500	-120.579880
13500.000000	-118.039841
13523.437500	-120.711533
13546.875000	-122.123444
13570.312500	-122.061760
13593.750000	-122.019791
13617.187500	-122.071220
13640.625000	-122.106697
13664.062500	-122.039680
13687.500000	-122.154236
13710.937500	-122.239891
13734.375000	-121.980904
13757.812500	-121.934616
13781.250000	-122.116615
13804.687500	-122.128365
13828.125000	-121.998764
13851.562500	-122.013649
13875.000000	-122.116661
13898.437500	-122.095016
13921.875000	-122.140533
13945.312500	-122.214012
13968.750000	-122.223251
13992.187500	-122.237968
14015.625000	-122.251595
14039.062500	-122.223419
14062.500000	-122.155655
14085.937500	-122.230690
14109.375000	-122.234383
14132.812500	-122.262444
14156.250000	-122.265465
14179.687500	-122.299278
14203.125000	-122.294380
14226.562500	-122.384956
14250.000000	-122.407677
14273.437500	-122.269524
14296.875000	-122.207275
14320.312500	-122.457336
14343.750000	-122.549194
14367.187500	-122.304901
14390.625000	-122.248535
14414.062500	-122.357056
14437.500000	-122.327866
14460.937500	-122.483994
14484.375000	-122.503143
14507.812500	-122.475204
14531.250000	-122.461113
14554.687500	-122.516304
14578.125000	-122.439117
14601.562500	-122.597366
14625.000000	-122.498337
14648.437500	-122.462456
14671.875000	-122.605995
14695.312500	-122.596779
14718.750000	-122.520905
14742.187500	-122.567924
14765.625000	-122.591171
14789.062500	-122.606216
14812.500000	-122.596283
14835.937500	-122.592384
14859.375000	-122.668907
14882.812500	-122.678535
14906.250000	-122.616753
14929.687500	-122.628044
14953.125000	-122.660728
14976.562500	-122.191910
15000.000000	-120.739845
15023.437500	-122.126633
15046.875000	-122.659706
15070.312500	-122.637383
15093.750000	-122.737350
15117.187500	-122.708397
15140.625000	-122.717575
15164.062500	-122.819733
15187.500000	-122.772957
15210.937500	-122.758064
15234.375000	-122.705818
15257.812500	-122.669243
15281.250000	-122.670044
15304.687500	-122.762100
15328.125000	-122.880417
15351.562500	-122.850967
15375.000000	-122.769875
15398.437500	-122.766014
15421.875000	-122.907188
15445.312500	-122.961487
15468.750000	-122.986359
15492.187500	-122.849960
15515.625000	-122.821747
15539.062500	-122.965309
15562.500000	-122.945229
15585.937500	-122.824356
15609.375000	-122.720924
15632.812500	-122.945343
15656.250000	-122.884804
15679.687500	-122.896744
15703.125000	-122.852814
15726.562500	-122.690201
15750.000000	-122.486832
15773.437500	-122.515213
15796.875000	-122.828568
15820.312500	-122.813301
15843.750000	-122.885208
15867.187500	-122.829895
15890.625000	-122.858452
15914.062500	-122.953812
15937.500000	-122.998360
15960.937500	-122.924728
15984.375000	-122.893402
16007.812500	-122.887794
16031.250000	-122.946808
16054.687500	-122.967781
16078.125000	-123.029182
16101.562500	-123.006889
16125.000000	-123.097748
16148.437500	-123.081093
16171.875000	-123.059578
16195.312500	-123.169762
16218.750000	-123.081642
16242.187500	-123.065529
16265.625000	-123.063019
16289.062500	-122.999390
16312.500000	-122.948364
16335.937500	-122.970543
16359.375000	-123.024338
16382.812500	-123.015907
16406.250000	-123.009117
16429.687500	-122.964844
16453.125000	-123.013550
16476.562500	-122.675957
16500.000000	-121.665741
16523.437500	-122.673698
16546.875000	-123.135307
16570.312500	-123.122696
16593.750000	-123.210342
16617.187500	-123.106544
16640.625000	-123.126205
16664.062500	-123.179100
16687.500000	-123.133545
16710.937500	-123.120720
16734.375000	-123.092659
16757.812500	-123.013344
16781.250000	-122.812256
16804.687500	-122.289879
16828.125000	-121.845642
16851.562500	-121.886490
16875.000000	-122.273552
16898.437500	-122.379791
16921.875000	-122.318169
16945.312500	-122.498589
16968.750000	-122.871239
16992.187500	-123.105507
17015.625000	-123.190735
17039.062500	-123.217659
17062.500000	-123.229584
17085.937500	-123.162804
17109.375000	-123.264893
17132.812500	-123.356537
17156.250000	-123.294548
17179.687500	-123.323067
17203.125000	-123.378540
17226.562500	-123.323921
17250.000000	-123.254509
17273.437500	-123.249634
17296.875000	-123.228790
17320.312500	-123.272881
17343.750000	-123.359612
17367.187500	-123.512016
17390.625000	-123.374008
17414.062500	-123.297401
17437.500000	-123.275696
17460.937500	-123.382744
17484.375000	-123.380791
17507.812500	-123.277397
17531.250000	-123.379135
17554.687500	-123.478828
17578.125000	-123.405388
17601.562500	-123.426483
17625.000000	-123.431564
17648.437500	-123.381462
17671.875000	-123.360870
17695.312500	-123.377609
17718.750000	-123.377159
17742.187500	-123.410965
17765.625000	-123.440498
17789.062500	-123.389145
17812.500000	-123.384758
17835.937500	-123.393661
17859.375000	-123.415985
17882.812500	-123.377968
17906.250000	-123.481888
17929.687500	-123.462067
17953.125000	-123.476028
17976.562500	-122.868149
18000.000000	-121.581993
18023.437500	-122.837227
18046.875000	-123.416824
18070.312500	-123.487640
18093.750000	-123.449501
18117.187500	-123.422195
18140.625000	-123.449844
18164.062500	-123.575485
18187.500000	-123.593193
18210.937500	-123.558388
18234.375000	-123.520607
18257.812500	-123.472008
18281.250000	-123.394852
18304.687500	-123.408150
18328.125000	-123.478943
18351.562500	-123.576828
18375.000000	-123.598946
18398.437500	-123.465294
18421.875000	-123.451866
18445.312500	-123.445259
18468.750000	-123.491371
18492.187500	-123.446022
18515.625000	-123.425461
18539.062500	-123.552933
18562.500000	-123.538544
18585.937500	-123.525528
18609.375000	-123.558319
18632.812500	-123.565323
18656.250000	-123.606628
18679.687500	-123.580673
18703.125000	-123.511093
18726.562500	-123.457756
18750.000000	-123.298569
18773.437500	-122.975914
18796.875000	-122.811996
18820.312500	-122.738007
18843.750000	-122.592468
18867.187500	-122.626556
18890.625000	-122.374657
18914.062500	-122.376938
18937.500000	-122.477272
18960.937500	-122.370132
18984.375000	-121.750198
19007.812500	-120.805542
19031.250000	-119.771141
19054.687500	-117.948135
19078.125000	-115.115494
19101.562500	-111.584579
19125.000000	-109.346748
19148.437500	-108.238632
19171.875000	-106.307663
19195.312500	-106.169952
19218.750000	-108.664024
19242.187500	-109.603600
19265.625000	-110.541389
19289.062500	-111.204086
19312.500000	-111.257088
19335.937500	-112.135727
19359.375000	-113.485931
19382.812500	-114.705231
19406.250000	-115.950417
19429.687500	-117.383858
19453.125000	-118.833801
19476.562500	-119.540382
19500.000000	-119.540657
19523.437500	-120.618584
19546.875000	-120.970337
19570.312500	-120.797035
19593.750000	-120.708260
19617.187500	-120.732208
19640.625000	-120.886192
19664.062500	-121.284668
19687.500000	-121.427589
19710.937500	-121.618523
19734.375000	-121.874947
19757.812500	-122.070740
19781.250000	-122.230942
19804.687500	-122.258194
19828.125000	-122.626579
19851.562500	-123.179886
19875.000000	-123.147705
19898.437500	-123.066826
19921.875000	-123.153854
19945.312500	-123.184425
19968.750000	-123.205376
19992.187500	-123.013596
20015.625000	-122.893585
20039.062500	-123.042793
20062.500000	-122.992989
20085.937500	-122.827240
20109.375000	-120.253334
20132.812500	-115.955147
20156.250000	-119.487000
20179.687500	-122.705261
20203.125000	-122.599907
20226.562500	-122.581406
20250.000000	-122.771751
20273.437500	-122.822426
20296.875000	-122.646919
20320.312500	-122.777336
20343.750000	-122.749199
20367.187500	-122.767357
20390.625000	-122.877258
20414.062500	-122.917625
20437.500000	-122.890488
20460.937500	-122.797760
20484.375000	-122.701035
20507.812500	-122.684166
20531.250000	-122.786560
20554.687500	-122.860809
20578.125000	-122.930595
20601.562500	-123.049553
20625.000000	-123.178902
20648.437500	-123.358040
20671.875000	-123.394218
20695.312500	-123.427811
20718.750000	-123.543915
20742.187500	-123.455284
20765.625000	-123.541611
20789.062500	-123.551720
20812.500000	-123.494591
20835.937500	-123.548111
20859.375000	-123.578537
20882.812500	-123.579056
20906.250000	-123.619247
20929.687500	-123.775986
20953.125000	-123.654167
20976.562500	-123.142593
21000.000000	-122.025330
21023.437500	-122.583290
21046.875000	-122.905045
21070.312500	-123.107597
21093.750000	-123.208115
21117.187500	-123.219864
21140.625000	-123.174843
21164.062500	-123.220848
21187.500000	-123.417267
21210.937500	-123.584389
21234.375000	-123.626930
21257.812500	-123.601402
21281.250000	-123.636536
21304.687500	-123.774536
21328.125000	-123.731384
21351.562500	-123.756966
21375.000000	-123.717346
21398.437500	-123.752068
21421.875000	-123.644302
21445.312500	-123.626114
21468.750000	-123.703835
21492.187500	-123.699722
21515.625000	-123.665756
21539.062500	-123.592209
21562.500000	-123.594887
21585.937500	-123.536682
21609.375000	-123.592537
21632.812500	-123.687454
21656.250000	-123.622490
21679.687500	-123.530258
21703.125000	-123.534012
21726.562500	-123.656342
21750.000000	-123.657410
21773.437500	-123.573120
21796.875000	-123.610039
21820.312500	-123.645882
21843.750000	-123.666969
21867.187500	-123.481712
21890.625000	-123.466095
21914.062500	-123.540840
21937.500000	-123.662224
21960.937500	-123.625999
21984.375000	-123.545486
22007.812500	-123.478432
22031.250000	-123.490967
22054.687500	-123.361794
22078.125000	-123.154243
22101.562500	-122.761063
22125.000000	-122.521362
22148.437500	-122.489334
22171.875000	-122.537659
22195.312500	-122.439316
22218.750000	-122.133957
22242.187500	-122.204941
22265.625000	-122.448738
22289.062500	-122.422462
22312.500000	-122.223885
22335.937500	-122.295479
22359.375000	-122.501991
22382.812500	-122.696869
22406.250000	-122.703262
22429.687500	-122.548599
22453.125000	-122.580544
22476.562500	-122.605980
22500.000000	-122.264984
22523.437500	-122.634499
22546.875000	-122.612740
22570.312500	-122.592735
22593.750000	-122.640892
22617.187500	-122.570908
22640.625000	-122.196426
22664.062500	-122.116760
22687.500000	-122.330162
22710.937500	-122.191124
22734.375000	-122.017738
22757.812500	-121.945374
22781.250000	-121.900597
22804.687500	-121.973869
22828.125000	-122.116043
22851.562500	-122.286125
22875.000000	-122.363113
22898.437500	-122.584908
22921.875000	-122.764107
22945.312500	-122.874191
22968.750000	-122.896805
22992.187500	-122.935310
23015.625000	-123.062019
23039.062500	-123.293655
23062.500000	-123.399101
23085.937500	-123.412865
23109.375000	-123.479866
23132.812500	-123.513687
23156.250000	-123.519028
23179.687500	-123.436974
23203.125000	-123.427673
23226.562500	-123.431381
23250.000000	-123.452652
23273.437500	-123.498474
23296.875000	-123.406891
23320.312500	-123.402885
23343.750000	-123.312691
23367.187500	-123.333382
23390.625000	-123.510544
23414.062500	-123.550156
23437.500000	-123.602318
23460.937500	-123.658989
23484.375000	-123.676453
23507.812500	-123.629303
23531.250000	-123.667709
23554.687500	-123.753967
23578.125000	-123.737030
23601.562500	-123.863991
23625.000000	-123.894394
23648.437500	-123.898376
23671.875000	-123.942116
23695.312500	-124.077126
23718.750000	-124.030289
23742.187500	-123.922211
23765.625000	-123.927124
23789.062500	-123.936440
23812.500000	-124.102829
23835.937500	-124.247353
23859.375000	-124.175987
23882.812500	-124.149055
23906.250000	-124.112175
23929.687500	-124.097977
23953.125000	-124.205681
23976.562500	-124.110497
24000.000000	-123.680862
24023.437500	-124.001793
24046.875000	-124.166618
24070.312500	-124.040947
24093.750000	-124.055229
24117.187500	-124.055313
24140.625000	-124.081039
24164.062500	-124.057579
24187.500000	-124.016510
24210.937500	-124.159203
24234.375000	-124.174629
24257.812500	-124.197319
24281.250000	-124.206131
24304.687500	-124.222145
24328.125000	-124.279091
24351.562500	-124.193779
24375.000000	-124.183945
24398.437500	-124.159416
24421.875000	-124.184799
24445.312500	-124.181206
24468.750000	-124.096405
24492.187500	-124.127106
24515.625000	-124.138031
24539.062500	-124.151756
24562.500000	-124.193832
24585.937500	-124.268394
24609.375000	-124.241493
24632.812500	-124.227386
24656.250000	-124.188652
24679.687500	-124.171661
24703.125000	-124.228432
24726.562500	-124.369255
24750.000000	-124.355545
24773.437500	-124.301788
24796.875000	-124.318306
24820.312500	-124.192757
24843.750000	-124.145111
24867.187500	-124.162514
24890.625000	-124.228897
24914.062500	-124.333748
24937.500000	-124.371086
24960.937500	-124.338776
24984.375000	-124.250038
25007.812500	-124.200859
25031.250000	-124.264900
25054.687500	-124.267265
25078.125000	-124.275002
25101.562500	-124.228210
25125.000000	-124.138985
25148.437500	-124.170021
25171.875000	-124.151909
25195.312500	-124.140228
25218.750000	-124.037346
25242.187500	-123.916328
25265.625000	-123.839363
25289.062500	-123.983643
25312.500000	-124.178947
25335.937500	-124.071220
25359.375000	-124.020821
25382.812500	-124.024170
25406.250000	-124.035431
25429.687500	-124.217918
25453.125000	-124.242599
25476.562500	-124.159790
25500.000000	-124.085083
25523.437500	-124.256493
25546.875000	-124.258713
25570.312500	-124.334450
25593.750000	-124.356041
25617.187500	-124.323936
25640.625000	-124.206238
25664.062500	-124.172661
25687.500000	-124.191483
25710.937500	-124.274933
25734.375000	-124.332024
25757.812500	-124.305840
25781.250000	-124.351837
25804.687500	-124.373024
25828.125000	-124.358078
25851.562500	-124.371780
25875.000000	-124.381531
25898.437500	-124.269539
25921.875000	-124.206902
25945.312500	-124.269524
25968.750000	-124.372688
25992.187500	-124.323059
26015.625000	-124.272820
26039.062500	-124.293213
26062.500000	-124.366791
26085.937500	-124.406219
26109.375000	-124.338142
26132.812500	-124.260040
26156.250000	-124.268875
26179.687500	-124.326004
26203.125000	-124.324387
26226.562500	-124.345810
26250.000000	-124.419434
26273.437500	-124.366890
26296.875000	-124.449753
26320.312500	-124.442764
26343.750000	-124.425270
26367.187500	-124.429398
26390.625000	-124.395027
26414.062500	-124.350212
26437.500000	-124.360748
26460.937500	-124.365128
26484.375000	-124.405411
26507.812500	-124.444702
26531.250000	-124.468529
26554.687500	-124.420815
26578.125000	-124.403244
26601.562500	-124.389664
26625.000000	-124.357124
26648.437500	-124.267418
26671.875000	-124.334854
26695.312500	-124.270844
26718.750000	-124.309608
26742.187500	-124.342987
26765.625000	-124.309082
26789.062500	-124.375168
26812.500000	-124.384003
26835.937500	-124.362534
26859.375000	-124.411766
26882.812500	-124.352020
26906.250000	-124.379105
26929.687500	-124.317848
26953.125000	-124.325073
26976.562500	-124.392570
27000.000000	-124.290634
27023.437500	-124.418877
27046.875000	-124.509819
27070.312500	-124.301193
27093.750000	-124.249916
27117.187500	-124.331642
27140.625000	-124.354187
27164.062500	-124.338264
27187.500000	-124.353447
27210.937500	-124.449524
27234.375000	-124.501625
27257.812500	-124.464439
27281.250000	-124.376366
27304.687500	-124.431625
27328.125000	-124.426956
27351.562500	-124.413048
27375.000000	-124.354942
27398.437500	-124.474586
27421.875000	-124.445412
27445.312500	-124.540474
27468.750000	-124.562828
27492.187500	-124.548439
27515.625000	-124.443268
27539.062500	-124.343819
27562.500000	-124.409538
27585.937500	-124.336319
27609.375000	-124.365074
27632.812500	-124.516197
27656.250000	-124.430962
27679.687500	-124.338585
27703.125000	-124.368378
27726.562500	-124.406319
27750.000000	-124.516792
27773.437500	-124.509811
27796.875000	-124.488846
27820.312500	-124.537209
27843.750000	-124.399971
27867.187500	-124.413261
27890.625000	-124.464188
27914.062500	-124.537369
27937.500000	-124.529182
27960.937500	-124.476021
27984.375000	-124.401726
28007.812500	-124.459366
28031.250000	-124.422218
28054.687500	-124.426666
28078.125000	-124.373466
28101.562500	-124.355865
28125.000000	-124.399933
28148.437500	-124.466805
28171.875000	-124.454605
28195.312500	-124.413170
28218.750000	-124.514244
28242.187500	-124.480461
28265.625000	-124.410088
28289.062500	-124.485054
28312.500000	-124.458015
28335.937500	-124.510948
28359.375000	-124.516670
28382.812500	-124.480621
28406.250000	-124.527794
28429.687500	-124.567665
28453.125000	-124.519302
28476.562500	-124.461502
28500.000000	-124.416611
28523.437500	-124.416626
28546.875000	-124.473251
28570.312500	-124.487526
28593.750000	-124.526451
28617.187500	-124.549271
28640.625000	-124.611351
28664.062500	-124.608185
28687.500000	-124.592911
28710.937500	-124.449928
28734.375000	-124.500793
28757.812500	-124.565971
28781.250000	-124.545113
28804.687500	-124.650414
28828.125000	-124.559746
28851.562500	-124.524147
28875.000000	-124.484825
28898.437500	-124.519455
28921.875000	-124.532509
28945.312500	-124.568085
28968.750000	-124.588348
28992.187500	-124.532776
29015.625000	-124.486427
29039.062500	-124.565910
29062.500000	-124.478767
29085.937500	-124.441261
29109.375000	-124.492348
29132.812500	-124.527313
29156.250000	-124.587059
29179.687500	-124.557777
29203.125000	-124.551849
29226.562500	-124.525467
29250.000000	-124.563156
29273.437500	-124.477280
29296.875000	-124.435829
29320.312500	-124.511116
29343.750000	-124.487701
29367.187500	-124.519684
29390.625000	-124.441635
29414.062500	-124.298409
29437.500000	-124.265617
29460.937500	-124.231224
29484.375000	-124.276596
29507.812500	-124.487206
29531.250000	-124.436737
29554.687500	-124.303520
29578.125000	-124.246460
29601.562500	-124.375336
29625.000000	-124.466949
29648.437500	-124.453117
29671.875000	-124.459038
29695.312500	-124.491295
29718.750000	-124.546371
29742.187500	-124.470886
29765.625000	-124.502235
29789.062500	-124.491653
29812.500000	-124.577293
29835.937500	-124.527229
29859.375000	-124.600006
29882.812500	-124.618935
29906.250000	-124.573792
29929.687500	-124.621918
29953.125000	-124.533592
29976.562500	-124.438034
30000.000000	-124.215424
30023.437500	-124.472290
30046.875000	-124.585304
30070.312500	-124.650925
30093.750000	-124.601151
30117.187500	-124.688210
30140.625000	-124.629944
30164.062500	-124.555107
30187.500000	-124.519669
30210.937500	-124.583244
30234.375000	-124.695625
30257.812500	-124.546082
30281.250000	-124.498772
30304.687500	-124.560982
30328.125000	-124.698898
30351.562500	-124.627472
30375.000000	-124.623749
30398.437500	-124.614563
30421.875000	-124.630768
30445.312500	-124.573708
30468.750000	-124.551407
30492.187500	-124.536659
30515.625000	-124.572113
30539.062500	-124.646408
30562.500000	-124.646461
30585.937500	-124.632408
30609.375000	-124.639648
30632.812500	-124.609009
30656.250000	-124.584984
30679.687500	-124.590477
30703.125000	-124.575508
30726.562500	-124.735413
30750.000000	-124.811699
30773.437500	-124.746544
30796.875000	-124.677399
30820.312500	-124.657173
30843.750000	-124.687447
30867.187500	-124.621300
30890.625000	-124.640556
30914.062500	-124.732330
30937.500000	-124.708855
30960.937500	-124.693520
30984.375000	-124.659492
31007.812500	-124.541290
31031.250000	-124.736443
31054.687500	-124.778801
31078.125000	-124.807243
31101.562500	-124.809479
31125.000000	-124.675430
31148.437500	-124.612259
31171.875000	-124.673439
31195.312500	-124.681496
31218.750000	-124.709694
31242.187500	-124.699097
31265.625000	-124.642242
31289.062500	-124.565247
31312.500000	-124.693092
31335.937500	-124.746185
31359.375000	-124.758675
31382.812500	-124.780220
31406.250000	-124.714951
31429.687500	-124.673584
31453.125000	-124.642746
31476.562500	-124.542725
31500.000000	-124.036728
31523.437500	-124.445450
31546.875000	-124.759399
31570.312500	-124.741516
31593.750000	-124.671509
31617.187500	-124.652100
31640.625000	-124.677345
31664.062500	-124.671211
31687.500000	-124.714783
31710.937500	-124.646133
31734.375000	-124.657394
31757.812500	-124.752403
31781.250000	-124.755959
31804.687500	-124.774185
31828.125000	-124.743828
31851.562500	-124.777893
31875.000000	-124.776108
31898.437500	-124.743614
31921.875000	-124.689827
31945.312500	-124.732689
31968.750000	-124.647362
31992.187500	-124.553993
32015.625000	-124.689583
32039.062500	-124.689201
32062.500000	-124.614532
32085.937500	-124.748306
32109.375000	-124.878868
32132.812500	-124.710808
32156.250000	-124.589493
32179.687500	-124.665222
32203.125000	-124.805992
32226.562500	-124.799973
32250.000000	-124.743797
32273.437500	-124.687248
32296.875000	-124.746086
32320.312500	-124.748985
32343.750000	-124.763885
32367.187500	-124.796501
32390.625000	-124.746742
32414.062500	-124.777260
32437.500000	-124.718864
32460.937500	-124.705963
32484.375000	-124.740799
32507.812500	-124.754341
32531.250000	-124.798058
32554.687500	-124.789734
32578.125000	-124.769295
32601.562500	-124.815941
32625.000000	-124.778465
32648.437500	-124.815735
32671.875000	-124.814972
32695.312500	-124.803085
32718.750000	-124.794708
32742.187500	-124.792870
32765.625000	-124.700760
32789.062500	-124.689362
32812.500000	-124.766357
32835.937500	-124.836411
32859.375000	-124.818764
32882.812500	-124.803780
32906.250000	-124.864204
32929.687500	-124.790886
32953.125000	-124.644203
32976.562500	-124.461479
33000.000000	-124.046867
33023.437500	-124.644592
33046.875000	-124.759430
33070.312500	-124.664032
33093.750000	-124.712807
33117.187500	-124.742607
33140.625000	-124.789154
33164.062500	-124.757004
33187.500000	-124.820694
33210.937500	-124.740028
33234.375000	-124.740685
33257.812500	-124.746902
33281.250000	-124.695419
33304.687500	-124.689705
33328.125000	-124.864288
33351.562500	-124.875710
33375.000000	-124.777733
33398.437500	-124.770256
33421.875000	-124.772163
33445.312500	-124.809036
33468.750000	-124.805962
33492.187500	-124.808014
33515.625000	-124.784012
33539.062500	-124.868362
33562.500000	-124.898544
33585.937500	-124.828598
33609.375000	-124.730942
33632.812500	-124.660629
33656.250000	-124.671608
33679.687500	-124.743759
33703.125000	-124.712807
33726.562500	-124.742249
33750.000000	-124.768021
33773.437500	-124.772438
33796.875000	-124.756187
33820.312500	-124.646461
33843.750000	-124.602203
33867.187500	-124.745903
33890.625000	-124.778633
33914.062500	-124.779945
33937.500000	-124.791687
33960.937500	-124.764549
33984.375000	-124.771652
34007.812500	-124.875748
34031.250000	-124.753876
34054.687500	-124.727051
34078.125000	-124.794128
34101.562500	-124.735031
34125.000000	-124.744057
34148.437500	-124.748291
34171.875000	-124.785194
34195.312500	-124.929710
34218.750000	-124.850586
34242.187500	-124.827042
34265.625000	-124.819305
34289.062500	-124.942093
34312.500000	-124.908073
34335.937500	-124.854073
34359.375000	-124.909081
34382.812500	-124.817558
34406.250000	-124.762695
34429.687500	-124.845383
34453.125000	-124.893822
34476.562500	-124.701408
34500.000000	-124.311012
34523.437500	-124.715317
34546.875000	-124.838516
34570.312500	-124.799858
34593.750000	-124.836288
34617.187500	-124.848358
34640.625000	-124.798080
34664.062500	-124.882103
34687.500000	-124.856171
34710.937500	-124.831337
34734.375000	-124.821106
34757.812500	-124.862610
34781.250000	-124.865112
34804.687500	-124.783218
34828.125000	-124.799187
34851.562500	-124.817917
34875.000000	-124.871429
34898.437500	-124.903404
34921.875000	-124.881050
34945.312500	-124.819305
34968.750000	-124.836639
34992.187500	-124.956718
35015.625000	-124.936111
35039.062500	-124.926094
35062.500000	-124.892776
35085.937500	-124.813400
35109.375000	-124.827232
35132.812500	-124.862984
35156.250000	-124.919823
35179.687500	-124.932808
35203.125000	-124.842964
35226.562500	-124.821739
35250.000000	-124.817055
35273.437500	-124.928108
35296.875000	-124.885078
35320.312500	-124.820877
35343.750000	-124.867538
35367.187500	-124.908707
35390.625000	-124.963783
35414.062500	-124.935623
35437.500000	-124.791718
35460.937500	-124.860764
35484.375000	-124.984528
35507.812500	-124.992424
35531.250000	-125.054077
35554.687500	-124.984993
35578.125000	-124.964462
35601.562500	-124.955002
35625.000000	-124.951340
35648.437500	-124.908340
35671.875000	-124.858864
35695.312500	-124.851562
35718.750000	-124.925278
35742.187500	-124.937050
35765.625000	-124.826630
35789.062500	-124.869225
35812.500000	-124.903275
35835.937500	-124.884323
35859.375000	-124.825340
35882.812500	-124.944214
35906.250000	-124.915009
35929.687500	-124.885056
35953.125000	-124.928871
35976.562500	-124.940407
36000.000000	-124.757385
36023.437500	-124.921791
36046.875000	-125.036217
36070.312500	-124.979141
36093.750000	-124.994087
36117.187500	-124.955429
36140.625000	-124.979752
36164.062500	-124.912140
36187.500000	-125.009407
36210.937500	-124.991600
36234.375000	-125.053596
36257.812500	-124.972595
36281.250000	-124.945381
36304.687500	-124.961464
36328.125000	-125.014275
36351.562500	-125.146355
36375.000000	-125.193573
36398.437500	-125.125000
36421.875000	-124.956123
36445.312500	-124.965141
36468.750000	-124.982262
36492.187500	-124.977661
36515.625000	-124.945702
36539.062500	-124.970589
36562.500000	-124.952156
36585.937500	-124.979889
36609.375000	-125.022087
36632.812500	-125.006660
36656.250000	-125.065643
36679.687500	-125.168510
36703.125000	-125.176788
36726.562500	-125.040527
36750.000000	-125.079559
36773.437500	-125.133942
36796.875000	-125.059868
36820.312500	-125.040260
36843.750000	-125.039192
36867.187500	-125.102913
36890.625000	-125.115395
36914.062500	-125.093758
36937.500000	-125.040146
36960.937500	-125.022263
36984.375000	-124.931503
37007.812500	-125.003380
37031.250000	-124.970695
37054.687500	-124.884125
37078.125000	-124.850784
37101.562500	-124.995934
37125.000000	-125.060158
37148.437500	-125.052788
37171.875000	-125.075493
37195.312500	-125.061447
37218.750000	-125.029907
37242.187500	-125.162949
37265.625000	-125.044701
37289.062500	-124.960152
37312.500000	-124.994125
37335.937500	-125.023247
37359.375000	-125.062210
37382.812500	-125.086594
37406.250000	-125.005066
37429.687500	-125.040657
37453.125000	-125.115303
37476.562500	-125.063828
37500.000000	-124.961433
37523.437500	-125.076050
37546.875000	-124.996590
37570.312500	-124.960152
37593.750000	-124.954887
37617.187500	-124.987167
37640.625000	-125.094086
37664.062500	-125.067146
37687.500000	-125.050583
37710.937500	-125.064339
37734.375000	-124.997566
37757.812500	-125.087753
37781.250000	-125.161446
37804.687500	-125.031197
37828.125000	-124.957535
37851.562500	-124.932457
37875.000000	-124.891365
37898.437500	-124.882698
37921.875000	-124.972473
37945.312500	-124.997810
37968.750000	-124.872299
37992.187500	-124.741562
38015.625000	-124.717979
38039.062500	-124.609276
38062.500000	-124.489258
38085.937500	-124.526581
38109.375000	-124.384819
38132.812500	-124.403534
38156.250000	-124.106705
38179.687500	-123.681786
38203.125000	-123.024216
38226.562500	-121.951736
38250.000000	-121.807076
38273.437500	-120.203232
38296.875000	-119.536522
38320.312500	-120.642746
38343.750000	-121.182892
38367.187500	-121.861610
38390.625000	-121.055199
38414.062500	-120.970932
38437.500000	-121.569962
38460.937500	-121.348007
38484.375000	-122.212845
38507.812500	-122.277039
38531.250000	-122.352013
38554.687500	-122.865746
38578.125000	-123.060371
38601.562500	-123.041740
38625.000000	-123.062759
38648.437500	-123.368622
38671.875000	-123.799782
38695.312500	-123.779327
38718.750000	-123.632835
38742.187500	-123.706390
38765.625000	-123.984703
38789.062500	-124.169579
38812.500000	-124.270912
38835.937500	-124.341423
38859.375000	-124.250610
38882.812500	-124.260956
38906.250000	-124.485619
38929.687500	-124.695869
38953.125000	-124.836220
38976.562500	-124.909538
39000.000000	-124.714096
39023.437500	-124.953842
39046.875000	-125.009232
39070.312500	-125.016174
39093.750000	-125.021545
39117.187500	-124.947128
39140.625000	-124.855972
39164.062500	-124.850929
39187.500000	-124.964386
39210.937500	-125.058243
39234.375000	-125.025307
39257.812500	-125.035614
39281.250000	-125.049210
39304.687500	-125.032448
39328.125000	-125.092499
39351.562500	-124.984772
39375.000000	-124.944191
39398.437500	-125.003448
39421.875000	-125.077644
39445.312500	-125.091873
39468.750000	-125.088181
39492.187500	-125.205917
39515.625000	-125.095932
39539.062500	-125.026917
39562.500000	-125.127533
39585.937500	-125.086464
39609.375000	-125.057259
39632.812500	-125.079346
39656.250000	-125.124298
39679.687500	-125.169975
39703.125000	-125.163872
39726.562500	-125.116478
39750.000000	-125.125549
39773.437500	-125.208076
39796.875000	-125.124695
39820.312500	-125.066025
39843.750000	-125.147339
39867.187500	-125.213226
39890.625000	-125.221436
39914.062500	-125.230530
39937.500000	-125.195305
39960.937500	-125.146606
39984.375000	-125.141304
40007.812500	-125.085922
40031.250000	-125.153008
40054.687500	-125.152412
40078.125000	-125.177979
40101.562500	-125.200546
40125.000000	-125.280380
40148.437500	-125.323143
40171.875000	-125.277588
40195.312500	-125.165085
40218.750000	-125.088509
40242.187500	-124.649940
40265.625000	-122.756973
40289.062500	-124.125092
40312.500000	-125.229218
40335.937500	-125.266159
40359.375000	-125.197861
40382.812500	-125.141258
40406.250000	-125.164001
40429.687500	-125.259346
40453.125000	-125.273239
40476.562500	-125.024757
40500.000000	-124.786087
40523.437500	-125.090805
40546.875000	-125.220665
40570.312500	-125.256699
40593.750000	-125.271767
40617.187500	-125.270363
40640.625000	-125.311203
40664.062500	-125.240891
40687.500000	-125.189491
40710.937500	-125.185501
40734.375000	-125.222725
40757.812500	-125.260033
40781.250000	-125.235466
40804.687500	-125.249374
40828.125000	-125.303001
40851.562500	-125.313660
40875.000000	-125.320816
40898.437500	-125.255791
40921.875000	-125.318871
40945.312500	-125.238724
40968.750000	-125.213928
40992.187500	-125.326393
41015.625000	-125.362625
41039.062500	-125.307533
41062.500000	-125.366455
41085.937500	-125.407410
41109.375000	-125.323776
41132.812500	-125.274910
41156.250000	-125.213844
41179.687500	-125.219261
41203.125000	-125.222183
41226.562500	-125.321266
41250.000000	-125.423141
41273.437500	-125.367661
41296.875000	-125.321968
41320.312500	-125.247124
41343.750000	-125.311279
41367.187500	-125.402710
41390.625000	-125.356316
41414.062500	-125.392311
41437.500000	-125.374458
41460.937500	-125.445320
41484.375000	-125.400246
41507.812500	-125.409477
41531.250000	-125.341164
41554.687500	-125.395752
41578.125000	-125.330925
41601.562500	-125.447182
41625.000000	-125.432487
41648.437500	-125.380051
41671.875000	-125.410515
41695.312500	-125.362480
41718.750000	-125.472954
41742.187500	-125.379990
41765.625000	-125.396973
41789.062500	-125.444855
41812.500000	-125.405533
41835.937500	-125.435188
41859.375000	-125.456551
41882.812500	-125.511139
41906.250000	-125.454735
41929.687500	-125.443336
41953.125000	-125.449783
41976.562500	-125.303925
42000.000000	-124.874489
42023.437500	-125.265663
42046.875000	-125.412399
42070.312500	-125.484215
42093.750000	-125.500427
42117.187500	-125.505646
42140.625000	-125.499786
42164.062500	-125.618370
42187.500000	-125.543076
42210.937500	-125.567795
42234.375000	-125.542992
42257.812500	-125.588142
42281.250000	-125.570816
42304.687500	-125.623085
42328.125000	-125.488632
42351.562500	-125.454887
42375.000000	-125.476326
42398.437500	-125.406097
42421.875000	-125.536438
42445.312500	-125.642700
42468.750000	-125.674065
42492.187500	-125.608124
42515.625000	-125.606354
42539.062500	-125.669304
42562.500000	-125.618523
42585.937500	-125.649704
42609.375000	-125.675911
42632.812500	-125.616165
42656.250000	-125.619637
42679.687500	-125.632858
42703.125000	-125.669411
42726.562500	-125.585579
42750.000000	-125.636574
42773.437500	-125.689507
42796.875000	-125.639900
42820.312500	-125.711456
42843.750000	-125.663712
42867.187500	-125.654900
42890.625000	-125.743401
42914.062500	-125.726463
42937.500000	-125.814247
42960.937500	-125.824242
42984.375000	-125.792755
43007.812500	-125.821938
43031.250000	-125.786560
43054.687500	-125.836761
43078.125000	-125.833649
43101.562500	-125.896812
43125.000000	-125.837471
43148.437500	-125.786499
43171.875000	-125.797279
43195.312500	-125.876091
43218.750000	-125.893631
43242.187500	-125.863083
43265.625000	-125.870567
43289.062500	-125.910416
43312.500000	-125.921150
43335.937500	-125.961235
43359.375000	-125.973000
43382.812500	-125.955338
43406.250000	-125.966972
43429.687500	-126.025307
43453.125000	-125.968102
43476.562500	-125.879608
43500.000000	-125.466881
43523.437500	-125.840050
43546.875000	-125.984390
43570.312500	-126.042023
43593.750000	-126.166840
43617.187500	-126.181366
43640.625000	-126.051796
43664.062500	-126.040031
43687.500000	-126.060745
43710.937500	-126.136253
43734.375000	-126.097366
43757.812500	-126.019196
43781.250000	-126.065849
43804.687500	-126.197876
43828.125000	-126.210335
43851.562500	-126.216782
43875.000000	-126.274307
43898.437500	-126.261971
43921.875000	-126.159821
43945.312500	-126.256767
43968.750000	-126.319237
43992.187500	-126.229820
44015.625000	-126.320465
44039.062500	-126.370529
44062.500000	-126.375046
44085.937500	-126.271767
44109.375000	-126.288452
44132.812500	-126.419327
44156.250000	-126.409538
44179.687500	-126.385216
44203.125000	-126.418282
44226.562500	-126.335846
44250.000000	-126.413055
44273.437500	-126.472176
44296.875000	-126.459801
44320.312500	-126.487144
44343.750000	-126.412262
44367.187500	-126.532265
44390.625000	-126.489784
44414.062500	-126.439384
44437.500000	-126.439644
44460.937500	-126.473122
44484.375000	-126.557182
44507.812500	-126.524269
44531.250000	-126.585228
44554.687500	-126.693985
44578.125000	-126.604698
44601.562500	-126.672264
44625.000000	-126.712219
44648.437500	-126.683571
44671.875000	-126.591896
44695.312500	-126.766487
44718.750000	-126.752243
44742.187500	-126.664124
44765.625000	-126.522377
44789.062500	-126.728745
44812.500000	-126.761765
44835.937500	-126.857918
44859.375000	-126.738403
44882.812500	-126.805161
44906.250000	-126.922318
44929.687500	-126.927147
44953.125000	-126.811989
44976.562500	-126.624878
45000.000000	-126.359665
45023.437500	-126.736282
45046.875000	-126.908455
45070.312500	-126.980125
45093.750000	-127.130264
45117.187500	-127.092812
45140.625000	-127.100876
45164.062500	-126.977760
45187.500000	-127.017128
45210.937500	-127.122078
45234.375000	-127.234650
45257.812500	-127.102608
45281.250000	-127.175011
45304.687500	-127.268166
45328.125000	-127.303932
45351.562500	-127.123169
45375.000000	-127.016907
45398.437500	-127.190498
45421.875000	-127.253426
45445.312500	-127.234245
45468.750000	-127.206375
45492.187500	-127.307167
45515.625000	-127.332893
45539.062500	-127.262039
45562.500000	-127.256447
45585.937500	-127.375023
45609.375000	-127.451317
45632.812500	-127.384232
45656.250000	-127.219940
45679.687500	-127.422417
45703.125000	-127.610596
45726.562500	-127.521294
45750.000000	-127.477020
45773.437500	-127.570862
45796.875000	-127.670303
45820.312500	-127.778702
45843.750000	-127.617554
45867.187500	-127.618576
45890.625000	-127.724007
45914.062500	-127.708809
45937.500000	-127.753059
45960.937500	-127.738152
45984.375000	-127.788681
46007.812500	-127.844795
46031.250000	-127.777344
46054.687500	-127.733894
46078.125000	-127.724136
46101.562500	-127.870987
46125.000000	-127.983345
46148.437500	-127.835823
46171.875000	-127.879883
46195.312500	-128.008453
46218.750000	-127.873680
46242.187500	-127.168495
46265.625000	-127.480865
46289.062500	-127.977875
46312.500000	-127.986214
46335.937500	-127.942680
46359.375000	-127.918289
46382.812500	-128.104813
46406.250000	-128.136597
46429.687500	-128.173477
46453.125000	-128.185379
46476.562500	-128.105515
46500.000000	-127.832741
46523.437500	-128.116043
46546.875000	-128.204391
46570.312500	-128.284927
46593.750000	-128.313446
46617.187500	-128.269409
46640.625000	-128.339127
46664.062500	-128.376236
46687.500000	-128.404724
46710.937500	-128.112717
46734.375000	-128.194794
46757.812500	-128.587540
46781.250000	-128.502625
46804.687500	-127.253571
46828.125000	-126.929642
46851.562500	-128.400635
46875.000000	-128.442429
46898.437500	-128.419464
46921.875000	-128.191910
46945.312500	-128.462265
46968.750000	-128.538391
46992.187500	-128.613678
47015.625000	-128.511383
47039.062500	-128.471405
47062.500000	-128.659653
47085.937500	-128.718140
47109.375000	-128.661697
47132.812500	-128.652206
47156.250000	-128.562347
47179.687500	-128.626785
47203.125000	-128.736481
47226.562500	-128.687164
47250.000000	-128.749741
47273.437500	-128.728119
47296.875000	-128.673264
47320.312500	-128.713852
47343.750000	-128.727631
47367.187500	-128.795517
47390.625000	-128.838181
47414.062500	-128.746231
47437.500000	-128.703659
47460.937500	-128.719330
47484.375000	-128.685226
47507.812500	-128.703171
47531.250000	-128.832779
47554.687500	-128.819946
47578.125000	-128.821655
47601.562500	-128.882462
47625.000000	-129.000793
47648.437500	-128.896515
47671.875000	-128.881332
47695.312500	-128.881317
47718.750000	-128.911163
47742.187500	-128.978439
47765.625000	-128.989182
47789.062500	-128.930161
47812.500000	-128.889130
47835.937500	-128.856903
47859.375000	-128.861130
47882.812500	-128.858414
47906.250000	-128.898071
47929.687500	-128.848206
47953.125000	-128.857437
47976.562500	-128.827408
