주파수 (Hz)	레벨 (dB)
23.437500	-97.378128
46.875000	-87.485588
70.312500	-72.926552
93.750000	-64.770920
117.187500	-59.444389
140.625000	-57.646149
164.062500	-59.720417
187.500000	-58.183659
210.937500	-57.212948
234.375000	-54.913128
257.812500	-57.204529
281.250000	-56.176441
304.687500	-54.918995
328.125000	-56.483173
351.562500	-55.218819
375.000000	-56.488033
398.437500	-57.188465
421.875000	-58.803337
445.312500	-54.134491
468.750000	-52.905304
492.187500	-58.121014
515.625000	-58.062042
539.062500	-57.173367
562.500000	-56.569511
585.937500	-52.861633
609.375000	-51.976086
632.812500	-51.786057
656.250000	-61.405609
679.687500	-57.565151
703.125000	-52.615963
726.562500	-56.541836
750.000000	-57.403625
773.437500	-54.912121
796.875000	-54.709953
820.312500	-65.283096
843.750000	-69.865585
867.187500	-65.638176
890.625000	-63.818138
914.062500	-67.403412
937.500000	-65.170029
960.937500	-70.558258
984.375000	-71.840996
1007.812500	-72.524872
1031.250000	-70.279785
1054.687500	-70.149765
1078.125000	-75.240448
1101.562500	-73.714165
1125.000000	-75.871719
1148.437500	-79.131592
1171.875000	-69.862831
1195.312500	-70.551712
1218.750000	-78.065140
1242.187500	-70.954910
1265.625000	-71.406952
1289.062500	-78.853569
1312.500000	-77.838234
1335.937500	-77.868690
1359.375000	-81.106262
1382.812500	-70.388412
1406.250000	-65.992920
1429.687500	-71.914490
1453.125000	-81.946686
1476.562500	-75.794502
1500.000000	-75.134949
1523.437500	-81.813408
1546.875000	-71.228302
1570.312500	-63.361317
1593.750000	-64.502808
1617.187500	-75.491280
1640.625000	-80.500870
1664.062500	-80.997421
1687.500000	-84.444252
1710.937500	-87.831383
1734.375000	-84.021011
1757.812500	-74.050247
1781.250000	-70.963600
1804.687500	-78.406296
1828.125000	-85.747665
1851.562500	-80.188339
1875.000000	-73.377548
1898.437500	-77.034050
1921.875000	-89.318542
1945.312500	-91.990562
1968.750000	-88.398170
1992.187500	-84.995567
2015.625000	-90.195312
2039.062500	-95.352547
2062.500000	-93.020126
2085.937500	-87.369629
2109.375000	-81.047913
2132.812500	-83.393715
2156.250000	-95.321785
2179.687500	-96.658623
2203.125000	-89.936134
2226.562500	-83.522362
2250.000000	-83.639168
2273.437500	-92.587440
2296.875000	-97.015457
2320.312500	-94.609047
2343.750000	-84.680351
2367.187500	-76.906357
2390.625000	-77.551300
2414.062500	-88.450134
2437.500000	-95.707191
2460.937500	-97.918968
2484.375000	-93.798096
2507.812500	-85.953926
2531.250000	-84.770332
2554.687500	-93.032021
2578.125000	-99.270790
2601.562500	-100.309639
2625.000000	-97.080368
2648.437500	-87.449402
2671.875000	-83.577682
2695.312500	-87.981750
2718.750000	-97.628868
2742.187500	-99.401787
2765.625000	-98.269676
2789.062500	-93.956642
2812.500000	-85.416313
2835.937500	-81.980278
2859.375000	-88.025566
2882.812500	-99.645767
2906.250000	-101.375801
2929.687500	-102.124031
2953.125000	-99.415939
2976.562500	-92.226562
3000.000000	-90.186813
3023.437500	-94.059570
3046.875000	-99.159309
3070.312500	-98.016220
3093.750000	-96.807594
3117.187500	-96.559792
3140.625000	-89.689880
3164.062500	-80.650513
3187.500000	-78.972496
3210.937500	-85.649849
3234.375000	-99.379112
3257.812500	-102.124809
3281.250000	-104.360069
3304.687500	-104.809319
3328.125000	-97.800659
3351.562500	-98.789825
3375.000000	-103.885902
3398.437500	-100.624664
3421.875000	-103.758896
3445.312500	-108.759666
3468.750000	-109.164330
3492.187500	-105.014664
3515.625000	-102.543877
3539.062500	-96.542206
3562.500000	-90.560570
3585.937500	-88.730133
3609.375000	-88.817322
3632.812500	-94.661980
3656.250000	-105.031853
3679.687500	-106.824638
3703.125000	-108.617416
3726.562500	-106.393738
3750.000000	-92.776970
3773.437500	-88.591438
3796.875000	-89.627159
3820.312500	-91.522476
3843.750000	-96.657623
3867.187500	-105.554199
3890.625000	-109.324821
3914.062500	-109.843163
3937.500000	-105.918571
3960.937500	-102.988846
3984.375000	-89.715675
4007.812500	-84.740555
4031.250000	-89.762772
4054.687500	-103.774605
4078.125000	-105.651344
4101.562500	-108.657898
4125.000000	-108.945869
4148.437500	-108.831551
4171.875000	-109.196465
4195.312500	-106.981941
4218.750000	-99.231247
4242.187500	-95.662750
4265.625000	-101.651131
4289.062500	-99.695854
4312.500000	-96.433548
4335.937500	-100.836189
4359.375000	-107.749794
4382.812500	-110.489120
4406.250000	-111.154015
4429.687500	-107.882912
4453.125000	-105.077621
4476.562500	-97.104195
4500.000000	-93.624443
4523.437500	-95.772156
4546.875000	-99.030724
4570.312500	-97.138420
4593.750000	-101.146812
4617.187500	-109.517776
4640.625000	-111.857841
4664.062500	-113.360985
4687.500000	-113.424980
4710.937500	-113.455116
4734.375000	-112.933853
4757.812500	-107.125046
4781.250000	-97.971909
4804.687500	-95.674522
4828.125000	-93.350677
4851.562500	-93.599525
4875.000000	-98.953506
4898.437500	-106.163734
4921.875000	-113.105568
4945.312500	-114.198036
4968.750000	-113.619751
4992.187500	-113.538681
5015.625000	-113.274017
5039.062500	-107.319733
5062.500000	-102.884308
5085.937500	-106.376472
5109.375000	-112.955330
5132.812500	-112.606026
5156.250000	-102.511894
5179.687500	-101.364998
5203.125000	-110.145348
5226.562500	-114.630119
5250.000000	-114.459610
5273.437500	-114.321663
5296.875000	-114.961311
5320.312500	-115.720467
5343.750000	-116.250755
5367.187500	-112.113480
5390.625000	-102.279182
5414.062500	-102.422340
5437.500000	-110.396309
5460.937500	-110.412178
5484.375000	-110.072189
5507.812500	-112.197159
5531.250000	-111.692276
5554.687500	-108.318848
5578.125000	-111.551308
5601.562500	-115.845146
5625.000000	-115.379128
5648.437500	-115.692154
5671.875000	-115.524414
5695.312500	-107.259193
5718.750000	-100.199654
5742.187500	-96.626976
5765.625000	-101.401871
5789.062500	-109.497116
5812.500000	-105.368500
5835.937500	-101.306679
5859.375000	-104.842606
5882.812500	-112.070198
5906.250000	-112.291664
5929.687500	-115.431831
5953.125000	-117.218719
5976.562500	-116.713791
6000.000000	-116.161438
6023.437500	-117.076393
6046.875000	-117.258621
6070.312500	-117.258125
6093.750000	-117.607513
6117.187500	-117.431259
6140.625000	-117.127846
6164.062500	-117.174004
6187.500000	-116.628555
6210.937500	-111.360794
6234.375000	-108.483353
6257.812500	-113.146233
6281.250000	-117.086746
6304.687500	-116.727760
6328.125000	-116.968498
6351.562500	-117.006454
6375.000000	-116.979485
6398.437500	-116.558716
6421.875000	-116.343323
6445.312500	-113.259346
6468.750000	-110.591042
6492.187500	-108.308464
6515.625000	-108.587128
6539.062500	-110.824150
6562.500000	-106.626541
6585.937500	-102.306595
6609.375000	-104.853806
6632.812500	-109.564827
6656.250000	-113.083717
6679.687500	-113.182304
6703.125000	-115.344559
6726.562500	-115.611649
6750.000000	-114.295876
6773.437500	-115.086288
6796.875000	-117.038513
6820.312500	-117.529884
6843.750000	-117.115677
6867.187500	-115.095406
6890.625000	-110.034149
6914.062500	-110.138817
6937.500000	-114.357933
6960.937500	-116.379288
6984.375000	-116.515144
7007.812500	-116.566895
7031.250000	-116.666626
7054.687500	-115.863762
7078.125000	-111.851730
7101.562500	-112.578682
7125.000000	-116.374489
7148.437500	-117.088318
7171.875000	-117.163315
7195.312500	-116.354774
7218.750000	-116.449333
7242.187500	-116.927734
7265.625000	-117.016068
7289.062500	-116.721237
7312.500000	-116.425461
7335.937500	-116.596375
7359.375000	-117.023224
7382.812500	-116.958824
7406.250000	-116.243546
7429.687500	-115.158775
7453.125000	-113.077583
7476.562500	-105.697853
7500.000000	-99.471809
7523.437500	-101.508659
7546.875000	-110.833794
7570.312500	-115.843033
7593.750000	-116.397987
7617.187500	-116.380539
7640.625000	-116.962341
7664.062500	-117.490303
7687.500000	-117.654724
7710.937500	-117.780205
7734.375000	-117.889305
7757.812500	-117.950493
7781.250000	-117.552719
7804.687500	-116.883942
7828.125000	-116.556618
7851.562500	-116.401222
7875.000000	-117.067245
7898.437500	-117.363991
7921.875000	-116.810013
7945.312500	-113.015144
7968.750000	-108.507088
7992.187500	-110.877876
8015.625000	-115.324532
8039.062500	-115.515297
8062.500000	-115.602997
8085.937500	-116.704651
8109.375000	-117.306442
8132.812500	-117.188774
8156.250000	-117.646637
8179.687500	-118.064865
8203.125000	-117.674065
8226.562500	-117.841873
8250.000000	-118.056259
8273.437500	-117.109200
8296.875000	-117.041695
8320.312500	-116.703979
8343.750000	-116.464439
8367.187500	-116.687889
8390.625000	-116.343216
8414.062500	-113.151390
8437.500000	-110.507072
8460.937500	-110.277359
8484.375000	-113.805504
8507.812500	-117.730682
8531.250000	-118.002663
8554.687500	-116.944649
8578.125000	-117.369247
8601.562500	-117.874733
8625.000000	-118.164185
8648.437500	-118.338028
8671.875000	-118.452080
8695.312500	-118.701515
8718.750000	-118.700912
8742.187500	-118.774948
8765.625000	-119.083443
8789.062500	-118.978241
8812.500000	-119.090813
8835.937500	-119.059677
8859.375000	-118.777214
8882.812500	-118.373047
8906.250000	-118.334877
8929.687500	-118.663681
8953.125000	-118.787506
8976.562500	-117.515358
9000.000000	-115.732269
9023.437500	-117.678459
9046.875000	-118.064636
9070.312500	-116.519516
9093.750000	-112.938194
9117.187500	-110.874733
9140.625000	-114.076210
9164.062500	-117.869492
9187.500000	-118.981377
9210.937500	-119.591476
9234.375000	-119.423134
9257.812500	-119.184143
9281.250000	-118.692200
9304.687500	-118.525635
9328.125000	-118.710770
9351.562500	-118.968826
9375.000000	-118.877457
9398.437500	-116.820702
9421.875000	-116.577904
9445.312500	-118.731331
9468.750000	-119.046425
9492.187500	-119.184738
9515.625000	-119.505447
9539.062500	-119.723854
9562.500000	-119.672050
9585.937500	-119.483185
9609.375000	-119.253883
9632.812500	-118.831398
9656.250000	-118.491096
9679.687500	-118.818565
9703.125000	-118.503113
9726.562500	-118.997818
9750.000000	-119.576225
9773.437500	-119.707932
9796.875000	-119.849289
9820.312500	-119.950294
9843.750000	-119.696663
9867.187500	-119.309464
9890.625000	-119.692421
9914.062500	-119.901619
9937.500000	-119.734810
9960.937500	-119.743759
9984.375000	-119.809723
10007.812500	-119.999847
10031.250000	-120.211128
10054.687500	-120.102699
10078.125000	-120.002106
10101.562500	-120.172173
10125.000000	-120.189217
10148.437500	-119.944077
10171.875000	-119.701767
10195.312500	-119.869125
10218.750000	-119.712715
10242.187500	-118.834930
10265.625000	-117.708069
10289.062500	-118.183792
10312.500000	-118.875832
10335.937500	-119.819824
10359.375000	-120.111122
10382.812500	-120.155174
10406.250000	-120.088326
10429.687500	-119.666534
10453.125000	-119.471252
10476.562500	-118.258904
10500.000000	-115.072609
10523.437500	-118.339027
10546.875000	-120.166893
10570.312500	-120.199356
10593.750000	-120.211967
10617.187500	-120.451080
10640.625000	-120.564560
10664.062500	-120.515739
10687.500000	-120.606102
10710.937500	-120.681953
10734.375000	-120.572586
10757.812500	-120.551445
10781.250000	-120.545906
10804.687500	-120.631065
10828.125000	-120.626747
10851.562500	-120.698425
10875.000000	-120.738220
10898.437500	-120.742546
10921.875000	-120.693901
10945.312500	-120.630974
10968.750000	-120.768776
10992.187500	-120.718033
11015.625000	-120.731705
11039.062500	-120.690681
11062.500000	-120.660263
11085.937500	-120.689758
11109.375000	-120.781654
11132.812500	-120.796394
11156.250000	-120.728058
11179.687500	-120.706383
11203.125000	-120.775879
11226.562500	-120.785072
11250.000000	-120.749207
11273.437500	-120.770897
11296.875000	-120.687698
11320.312500	-120.591789
11343.750000	-120.536285
11367.187500	-120.575760
11390.625000	-120.608231
11414.062500	-120.666176
11437.500000	-120.671417
11460.937500	-120.737770
11484.375000	-120.822464
11507.812500	-120.750511
11531.250000	-120.645645
11554.687500	-120.646759
11578.125000	-120.569923
11601.562500	-120.862785
11625.000000	-120.781868
11648.437500	-120.684700
11671.875000	-120.772202
11695.312500	-120.658127
11718.750000	-120.242393
11742.187500	-119.892784
11765.625000	-119.790977
11789.062500	-119.941055
11812.500000	-120.083221
11835.937500	-120.455711
11859.375000	-120.680847
11882.812500	-120.776077
11906.250000	-120.938377
11929.687500	-121.105377
11953.125000	-120.980530
11976.562500	-119.031311
12000.000000	-115.790176
12023.437500	-118.916313
12046.875000	-120.811539
12070.312500	-120.954720
12093.750000	-121.101364
12117.187500	-121.064209
12140.625000	-121.035126
12164.062500	-121.044586
12187.500000	-121.128098
12210.937500	-121.230278
12234.375000	-121.212296
12257.812500	-121.122940
12281.250000	-121.130653
12304.687500	-121.086411
12328.125000	-121.100533
12351.562500	-121.184723
12375.000000	-121.198807
12398.437500	-121.210228
12421.875000	-121.146736
12445.312500	-121.138054
12468.750000	-121.177818
12492.187500	-121.293030
12515.625000	-121.230026
12539.062500	-121.054916
12562.500000	-120.580589
12585.937500	-120.226219
12609.375000	-119.451866
12632.812500	-118.970329
12656.250000	-119.319351
12679.687500	-119.856789
12703.125000	-120.096733
12726.562500	-120.513229
12750.000000	-121.083466
12773.437500	-121.238846
12796.875000	-121.164337
12820.312500	-121.270683
12843.750000	-121.445976
12867.187500	-121.386787
12890.625000	-121.395744
12914.062500	-121.322830
12937.500000	-121.252121
12960.937500	-121.304329
12984.375000	-121.333832
13007.812500	-121.479614
13031.250000	-121.683464
13054.687500	-121.712357
13078.125000	-121.617989
13101.562500	-121.574287
13125.000000	-121.548203
13148.437500	-121.523575
13171.875000	-121.442558
13195.312500	-121.467514
13218.750000	-121.540115
13242.187500	-121.686127
13265.625000	-121.745911
13289.062500	-121.781670
13312.500000	-121.806824
13335.937500	-121.873955
13359.375000	-121.778534
13382.812500	-121.621452
13406.250000	-121.707947
13429.687500	-121.849075
13453.125000	-121.877022
13476.562500	-120.455200
13500.000000	-117.977425
13523.437500	-120.506927
13546.875000	-121.768089
13570.312500	-121.721550
13593.750000	-121.836449
13617.187500	-121.924614
13640.625000	-121.970779
13664.062500	-121.713898
13687.500000	-121.699455
13710.937500	-121.834778
13734.375000	-121.803520
13757.812500	-121.799370
13781.250000	-121.959251
13804.687500	-121.839653
13828.125000	-121.795959
13851.562500	-121.803268
13875.000000	-122.003136
13898.437500	-121.990257
13921.875000	-122.112396
13945.312500	-121.966316
13968.750000	-121.811691
13992.187500	-121.859016
14015.625000	-122.027687
14039.062500	-122.145027
14062.500000	-122.117851
14085.937500	-122.037636
14109.375000	-121.741493
14132.812500	-121.903610
14156.250000	-122.009460
14179.687500	-122.090645
14203.125000	-122.185974
14226.562500	-122.190498
14250.000000	-122.064789
14273.437500	-122.162285
14296.875000	-122.296463
14320.312500	-122.229591
14343.750000	-122.180183
14367.187500	-122.061165
14390.625000	-122.084724
14414.062500	-122.222336
14437.500000	-122.102257
14460.937500	-122.212868
14484.375000	-122.370651
14507.812500	-122.420792
14531.250000	-122.346207
14554.687500	-122.291794
14578.125000	-122.383423
14601.562500	-122.471756
14625.000000	-122.292404
14648.437500	-122.235268
14671.875000	-122.371994
14695.312500	-122.380096
14718.750000	-122.337349
14742.187500	-122.384476
14765.625000	-122.366745
14789.062500	-122.320663
14812.500000	-122.204971
14835.937500	-122.324379
14859.375000	-122.318001
14882.812500	-122.342880
14906.250000	-122.422905
14929.687500	-122.410744
14953.125000	-122.415237
14976.562500	-121.842255
15000.000000	-120.494698
15023.437500	-121.943153
15046.875000	-122.509750
15070.312500	-122.514030
15093.750000	-122.410751
15117.187500	-122.484077
15140.625000	-122.597763
15164.062500	-122.572800
15187.500000	-122.588699
15210.937500	-122.452141
15234.375000	-122.511246
15257.812500	-122.641701
15281.250000	-122.645103
15304.687500	-122.630013
15328.125000	-122.700966
15351.562500	-122.778931
15375.000000	-122.764000
15398.437500	-122.659180
15421.875000	-122.704453
15445.312500	-122.621185
15468.750000	-122.484108
15492.187500	-122.523689
15515.625000	-122.625870
15539.062500	-122.732590
15562.500000	-122.779030
15585.937500	-122.765656
15609.375000	-122.681679
15632.812500	-122.761452
15656.250000	-122.796379
15679.687500	-122.880821
15703.125000	-122.919495
15726.562500	-122.786156
15750.000000	-122.365471
15773.437500	-122.306900
15796.875000	-122.777298
15820.312500	-122.832245
15843.750000	-122.795746
15867.187500	-122.769867
15890.625000	-122.873978
15914.062500	-122.904968
15937.500000	-122.864578
15960.937500	-122.899849
15984.375000	-122.887100
16007.812500	-122.768806
16031.250000	-122.808922
16054.687500	-122.919762
16078.125000	-122.930428
16101.562500	-122.953896
16125.000000	-122.977600
16148.437500	-123.026833
16171.875000	-122.953644
16195.312500	-123.081940
16218.750000	-123.103386
16242.187500	-123.049004
16265.625000	-122.988518
16289.062500	-122.964897
16312.500000	-122.908646
16335.937500	-122.944283
16359.375000	-122.992493
16382.812500	-122.935806
16406.250000	-122.927887
16429.687500	-123.003029
16453.125000	-123.091820
16476.562500	-122.659492
16500.000000	-121.595848
16523.437500	-122.655937
16546.875000	-123.076187
16570.312500	-122.984169
16593.750000	-122.997513
16617.187500	-123.068161
16640.625000	-123.024788
16664.062500	-123.048820
16687.500000	-123.079689
16710.937500	-123.053894
16734.375000	-122.992775
16757.812500	-122.911415
16781.250000	-122.581093
16804.687500	-122.119385
16828.125000	-121.825241
16851.562500	-121.854500
16875.000000	-122.380692
16898.437500	-122.434944
16921.875000	-122.333298
16945.312500	-122.496819
16968.750000	-122.869385
16992.187500	-123.030373
17015.625000	-123.085144
17039.062500	-123.251343
17062.500000	-123.256813
17085.937500	-123.252457
17109.375000	-123.208664
17132.812500	-123.232208
17156.250000	-123.230637
17179.687500	-123.235992
17203.125000	-123.189713
17226.562500	-123.279793
17250.000000	-123.287102
17273.437500	-123.274422
17296.875000	-123.284431
17320.312500	-123.327484
17343.750000	-123.344002
17367.187500	-123.390869
17390.625000	-123.311546
17414.062500	-123.301826
17437.500000	-123.468102
17460.937500	-123.324760
17484.375000	-123.325073
17507.812500	-123.357140
17531.250000	-123.340752
17554.687500	-123.377296
17578.125000	-123.402657
17601.562500	-123.403328
17625.000000	-123.414101
17648.437500	-123.361740
17671.875000	-123.351486
17695.312500	-123.369484
17718.750000	-123.443398
17742.187500	-123.427956
17765.625000	-123.431358
17789.062500	-123.389854
17812.500000	-123.428101
17835.937500	-123.438225
17859.375000	-123.457626
17882.812500	-123.377800
17906.250000	-123.356293
17929.687500	-123.463966
17953.125000	-123.513657
17976.562500	-122.901581
18000.000000	-121.693626
18023.437500	-122.909431
18046.875000	-123.453239
18070.312500	-123.469666
18093.750000	-123.338791
18117.187500	-123.381584
18140.625000	-123.382736
18164.062500	-123.407692
18187.500000	-123.519180
18210.937500	-123.572853
18234.375000	-123.482086
18257.812500	-123.526573
18281.250000	-123.549950
18304.687500	-123.451401
18328.125000	-123.450760
18351.562500	-123.423248
18375.000000	-123.447525
18398.437500	-123.458855
18421.875000	-123.579521
18445.312500	-123.561096
18468.750000	-123.422119
18492.187500	-123.404945
18515.625000	-123.443665
18539.062500	-123.517517
18562.500000	-123.415146
18585.937500	-123.397507
18609.375000	-123.487114
18632.812500	-123.569153
18656.250000	-123.608063
18679.687500	-123.499100
18703.125000	-123.384583
18726.562500	-123.414223
18750.000000	-123.443573
18773.437500	-123.248589
18796.875000	-122.858543
18820.312500	-122.762642
18843.750000	-122.702568
18867.187500	-122.611092
18890.625000	-122.358459
18914.062500	-122.205605
18937.500000	-122.352715
18960.937500	-122.466316
18984.375000	-121.798225
19007.812500	-120.955872
19031.250000	-120.137001
19054.687500	-118.569450
19078.125000	-116.018951
19101.562500	-112.938599
19125.000000	-110.118385
19148.437500	-108.805573
19171.875000	-107.211884
19195.312500	-106.156479
19218.750000	-107.812668
19242.187500	-109.765900
19265.625000	-110.116699
19289.062500	-111.178978
19312.500000	-111.071648
19335.937500	-111.747345
19359.375000	-113.073372
19382.812500	-114.004555
19406.250000	-115.128265
19429.687500	-116.662376
19453.125000	-117.919601
19476.562500	-118.719101
19500.000000	-118.746803
19523.437500	-119.880554
19546.875000	-120.634544
19570.312500	-120.585930
19593.750000	-120.269791
19617.187500	-120.189758
19640.625000	-120.284752
19664.062500	-120.599648
19687.500000	-120.791870
19710.937500	-120.655464
19734.375000	-121.058693
19757.812500	-121.529068
19781.250000	-121.639702
19804.687500	-121.756920
19828.125000	-121.990997
19851.562500	-122.509743
19875.000000	-122.770119
19898.437500	-122.547775
19921.875000	-122.814674
19945.312500	-122.888062
19968.750000	-122.990860
19992.187500	-122.806465
20015.625000	-122.453957
20039.062500	-122.451553
20062.500000	-122.334305
20085.937500	-122.083069
20109.375000	-119.869835
20132.812500	-115.831085
20156.250000	-119.105148
20179.687500	-121.786591
20203.125000	-121.668526
20226.562500	-121.673409
20250.000000	-121.920502
20273.437500	-121.915131
20296.875000	-121.800362
20320.312500	-121.893532
20343.750000	-122.007713
20367.187500	-122.045189
20390.625000	-122.236748
20414.062500	-122.242081
20437.500000	-122.156586
20460.937500	-122.321968
20484.375000	-122.389923
20507.812500	-122.486504
20531.250000	-122.577072
20554.687500	-122.509697
20578.125000	-122.621933
20601.562500	-122.755318
20625.000000	-122.828285
20648.437500	-122.974792
20671.875000	-123.132576
20695.312500	-123.211349
20718.750000	-123.403526
20742.187500	-123.396797
20765.625000	-123.432198
20789.062500	-123.439919
20812.500000	-123.441795
20835.937500	-123.478287
20859.375000	-123.435745
20882.812500	-123.533043
20906.250000	-123.514748
20929.687500	-123.481941
20953.125000	-123.567299
20976.562500	-123.081467
21000.000000	-121.816505
21023.437500	-122.561035
21046.875000	-122.884987
21070.312500	-123.209770
21093.750000	-123.414627
21117.187500	-123.407791
21140.625000	-123.088776
21164.062500	-123.189880
21187.500000	-123.477097
21210.937500	-123.658066
21234.375000	-123.707283
21257.812500	-123.735245
21281.250000	-123.666611
21304.687500	-123.551064
21328.125000	-123.701927
21351.562500	-123.700089
21375.000000	-123.674088
21398.437500	-123.764183
21421.875000	-123.734680
21445.312500	-123.812012
21468.750000	-123.657692
21492.187500	-123.629272
21515.625000	-123.637138
21539.062500	-123.558403
21562.500000	-123.519394
21585.937500	-123.550789
21609.375000	-123.712021
21632.812500	-123.744392
21656.250000	-123.592751
21679.687500	-123.587891
21703.125000	-123.668953
21726.562500	-123.610245
21750.000000	-123.630226
21773.437500	-123.698311
21796.875000	-123.721115
21820.312500	-123.721390
21843.750000	-123.726471
21867.187500	-123.572685
21890.625000	-123.553078
21914.062500	-123.536812
21937.500000	-123.605614
21960.937500	-123.705177
21984.375000	-123.656189
22007.812500	-123.517731
22031.250000	-123.499756
22054.687500	-123.532562
22078.125000	-123.421524
22101.562500	-123.092865
22125.000000	-122.892731
22148.437500	-122.846153
22171.875000	-122.887505
22195.312500	-122.400864
22218.750000	-122.013504
22242.187500	-122.168236
22265.625000	-122.513123
22289.062500	-122.588890
22312.500000	-122.226089
22335.937500	-122.213600
22359.375000	-122.334770
22382.812500	-122.533806
22406.250000	-122.639275
22429.687500	-122.453804
22453.125000	-122.499176
22476.562500	-122.656502
22500.000000	-122.260139
22523.437500	-122.565186
22546.875000	-122.699097
22570.312500	-122.700500
22593.750000	-122.846382
22617.187500	-122.726372
22640.625000	-122.471245
22664.062500	-122.277046
22687.500000	-122.262039
22710.937500	-122.191589
22734.375000	-122.111420
22757.812500	-121.905853
22781.250000	-121.883499
22804.687500	-122.039597
22828.125000	-122.117310
22851.562500	-122.187202
22875.000000	-122.259293
22898.437500	-122.449982
22921.875000	-122.715813
22945.312500	-122.872147
22968.750000	-122.920845
22992.187500	-123.020981
23015.625000	-123.118057
23039.062500	-123.106293
23062.500000	-123.246857
23085.937500	-123.529480
23109.375000	-123.574776
23132.812500	-123.408211
23156.250000	-123.408951
23179.687500	-123.474907
23203.125000	-123.459412
23226.562500	-123.397842
23250.000000	-123.428833
23273.437500	-123.360443
23296.875000	-123.356903
23320.312500	-123.374847
23343.750000	-123.277885
23367.187500	-123.355141
23390.625000	-123.398026
23414.062500	-123.419510
23437.500000	-123.473999
23460.937500	-123.417908
23484.375000	-123.494110
23507.812500	-123.573433
23531.250000	-123.627823
23554.687500	-123.699036
23578.125000	-123.746864
23601.562500	-123.802040
23625.000000	-123.842468
23648.437500	-123.793076
23671.875000	-123.823410
23695.312500	-123.913254
23718.750000	-123.955246
23742.187500	-123.956314
23765.625000	-124.001663
23789.062500	-124.095840
23812.500000	-124.163673
23835.937500	-123.990517
23859.375000	-123.966728
23882.812500	-124.101883
23906.250000	-124.130737
23929.687500	-124.086624
23953.125000	-124.124290
23976.562500	-124.082787
24000.000000	-123.643478
24023.437500	-123.958916
24046.875000	-124.073471
24070.312500	-124.080513
24093.750000	-124.013115
24117.187500	-124.191536
24140.625000	-124.181175
24164.062500	-124.083221
24187.500000	-124.104988
24210.937500	-124.069473
24234.375000	-124.174484
24257.812500	-124.234665
24281.250000	-124.227524
24304.687500	-124.163925
24328.125000	-124.160828
24351.562500	-124.119232
24375.000000	-124.200546
24398.437500	-124.185944
24421.875000	-124.186508
24445.312500	-124.201515
24468.750000	-124.202156
24492.187500	-124.240799
24515.625000	-124.218742
24539.062500	-124.300552
24562.500000	-124.280716
24585.937500	-124.231499
24609.375000	-124.190025
24632.812500	-124.135826
24656.250000	-124.113335
24679.687500	-124.170700
24703.125000	-124.142349
24726.562500	-124.174095
24750.000000	-124.180229
24773.437500	-124.313095
24796.875000	-124.365662
24820.312500	-124.250923
24843.750000	-124.177521
24867.187500	-124.233589
24890.625000	-124.226135
24914.062500	-124.194176
24937.500000	-124.271477
24960.937500	-124.291496
24984.375000	-124.107933
25007.812500	-124.126732
25031.250000	-124.145439
25054.687500	-124.199898
25078.125000	-124.320007
25101.562500	-124.277840
25125.000000	-124.248917
25148.437500	-124.205116
25171.875000	-124.194099
25195.312500	-124.165459
25218.750000	-124.090294
25242.187500	-123.904823
25265.625000	-123.854416
25289.062500	-124.050087
25312.500000	-124.181885
25335.937500	-124.172516
25359.375000	-124.024757
25382.812500	-124.073044
25406.250000	-124.131660
25429.687500	-124.256508
25453.125000	-124.237732
25476.562500	-124.196083
25500.000000	-124.017708
25523.437500	-124.114197
25546.875000	-124.300446
25570.312500	-124.430229
25593.750000	-124.369164
25617.187500	-124.316467
25640.625000	-124.245773
25664.062500	-124.235542
25687.500000	-124.282822
25710.937500	-124.370514
25734.375000	-124.369255
25757.812500	-124.326859
25781.250000	-124.440086
25804.687500	-124.391182
25828.125000	-124.390137
25851.562500	-124.418083
25875.000000	-124.280960
25898.437500	-124.264694
25921.875000	-124.358162
25945.312500	-124.389671
25968.750000	-124.350517
25992.187500	-124.242065
26015.625000	-124.296135
26039.062500	-124.289680
26062.500000	-124.331154
26085.937500	-124.320587
26109.375000	-124.336853
26132.812500	-124.337723
26156.250000	-124.318123
26179.687500	-124.299522
26203.125000	-124.351166
26226.562500	-124.391518
26250.000000	-124.500000
26273.437500	-124.490036
26296.875000	-124.431305
26320.312500	-124.326927
26343.750000	-124.238083
26367.187500	-124.273605
26390.625000	-124.395012
26414.062500	-124.334175
26437.500000	-124.374664
26460.937500	-124.418480
26484.375000	-124.430115
26507.812500	-124.447456
26531.250000	-124.455215
26554.687500	-124.375443
26578.125000	-124.318115
26601.562500	-124.462288
26625.000000	-124.492188
26648.437500	-124.440163
26671.875000	-124.310143
26695.312500	-124.277641
26718.750000	-124.381927
26742.187500	-124.480980
26765.625000	-124.431465
26789.062500	-124.423035
26812.500000	-124.470184
26835.937500	-124.405533
26859.375000	-124.403999
26882.812500	-124.408852
26906.250000	-124.382240
26929.687500	-124.357819
26953.125000	-124.377563
26976.562500	-124.394386
27000.000000	-124.289169
27023.437500	-124.359917
27046.875000	-124.454926
27070.312500	-124.413544
27093.750000	-124.396103
27117.187500	-124.434776
27140.625000	-124.441399
27164.062500	-124.380119
27187.500000	-124.410950
27210.937500	-124.439400
27234.375000	-124.422874
27257.812500	-124.402298
27281.250000	-124.476280
27304.687500	-124.469658
27328.125000	-124.373505
27351.562500	-124.327415
27375.000000	-124.263237
27398.437500	-124.388435
27421.875000	-124.496239
27445.312500	-124.375221
27468.750000	-124.400848
27492.187500	-124.323380
27515.625000	-124.332428
27539.062500	-124.444878
27562.500000	-124.496193
27585.937500	-124.538734
27609.375000	-124.487541
27632.812500	-124.432770
27656.250000	-124.463387
27679.687500	-124.455093
27703.125000	-124.357742
27726.562500	-124.294456
27750.000000	-124.365433
27773.437500	-124.468513
27796.875000	-124.424957
27820.312500	-124.334930
27843.750000	-124.352959
27867.187500	-124.490387
27890.625000	-124.435951
27914.062500	-124.469772
27937.500000	-124.515587
27960.937500	-124.470589
27984.375000	-124.413223
28007.812500	-124.458870
28031.250000	-124.454346
28054.687500	-124.465500
28078.125000	-124.535324
28101.562500	-124.511581
28125.000000	-124.378288
28148.437500	-124.471779
28171.875000	-124.509361
28195.312500	-124.506287
28218.750000	-124.571739
28242.187500	-124.512344
28265.625000	-124.372269
28289.062500	-124.394096
28312.500000	-124.397049
28335.937500	-124.412209
28359.375000	-124.525841
28382.812500	-124.501663
28406.250000	-124.424538
28429.687500	-124.478302
28453.125000	-124.472664
28476.562500	-124.441208
28500.000000	-124.440018
28523.437500	-124.406273
28546.875000	-124.373833
28570.312500	-124.403938
28593.750000	-124.486580
28617.187500	-124.555382
28640.625000	-124.520454
28664.062500	-124.534729
28687.500000	-124.500771
28710.937500	-124.505898
28734.375000	-124.518463
28757.812500	-124.430138
28781.250000	-124.410568
28804.687500	-124.525597
28828.125000	-124.480171
28851.562500	-124.413567
28875.000000	-124.540924
28898.437500	-124.531029
28921.875000	-124.547562
28945.312500	-124.596420
28968.750000	-124.635010
28992.187500	-124.574631
29015.625000	-124.483269
29039.062500	-124.583534
29062.500000	-124.603302
29085.937500	-124.532089
29109.375000	-124.541542
29132.812500	-124.394630
29156.250000	-124.408768
29179.687500	-124.485970
29203.125000	-124.506180
29226.562500	-124.529510
29250.000000	-124.526718
29273.437500	-124.490959
29296.875000	-124.468208
29320.312500	-124.521301
29343.750000	-124.497032
29367.187500	-124.491966
29390.625000	-124.499275
29414.062500	-124.459145
29437.500000	-124.358421
29460.937500	-124.376167
29484.375000	-124.298019
29507.812500	-124.288544
29531.250000	-124.361557
29554.687500	-124.392891
29578.125000	-124.392975
29601.562500	-124.374596
29625.000000	-124.455460
29648.437500	-124.467110
29671.875000	-124.577652
29695.312500	-124.596123
29718.750000	-124.428497
29742.187500	-124.541641
29765.625000	-124.573593
29789.062500	-124.497864
29812.500000	-124.524750
29835.937500	-124.514259
29859.375000	-124.554245
29882.812500	-124.612350
29906.250000	-124.633797
29929.687500	-124.568146
29953.125000	-124.545937
29976.562500	-124.436203
30000.000000	-124.260643
30023.437500	-124.490051
30046.875000	-124.596519
30070.312500	-124.557571
30093.750000	-124.508636
30117.187500	-124.554077
30140.625000	-124.635567
30164.062500	-124.594727
30187.500000	-124.526993
30210.937500	-124.541924
30234.375000	-124.593567
30257.812500	-124.673782
30281.250000	-124.700989
30304.687500	-124.597801
30328.125000	-124.563248
30351.562500	-124.652222
30375.000000	-124.657280
30398.437500	-124.632805
30421.875000	-124.629211
30445.312500	-124.563522
30468.750000	-124.624222
30492.187500	-124.632149
30515.625000	-124.683990
30539.062500	-124.696190
30562.500000	-124.618401
30585.937500	-124.598076
30609.375000	-124.592163
30632.812500	-124.660286
30656.250000	-124.677162
30679.687500	-124.645096
30703.125000	-124.647881
30726.562500	-124.639114
30750.000000	-124.666489
30773.437500	-124.662216
30796.875000	-124.654480
30820.312500	-124.640884
30843.750000	-124.589325
30867.187500	-124.647179
30890.625000	-124.647850
30914.062500	-124.575920
30937.500000	-124.487869
30960.937500	-124.641708
30984.375000	-124.644104
31007.812500	-124.660278
31031.250000	-124.640137
31054.687500	-124.557434
31078.125000	-124.612679
31101.562500	-124.735672
31125.000000	-124.691475
31148.437500	-124.692253
31171.875000	-124.697884
31195.312500	-124.709122
31218.750000	-124.739540
31242.187500	-124.663666
31265.625000	-124.635483
31289.062500	-124.755486
31312.500000	-124.793045
31335.937500	-124.640419
31359.375000	-124.599083
31382.812500	-124.696289
31406.250000	-124.837875
31429.687500	-124.798843
31453.125000	-124.720215
31476.562500	-124.546440
31500.000000	-124.011383
31523.437500	-124.487503
31546.875000	-124.694069
31570.312500	-124.661072
31593.750000	-124.701500
31617.187500	-124.663956
31640.625000	-124.797630
31664.062500	-124.788780
31687.500000	-124.679680
31710.937500	-124.729668
31734.375000	-124.721741
31757.812500	-124.606201
31781.250000	-124.683502
31804.687500	-124.778824
31828.125000	-124.710007
31851.562500	-124.634872
31875.000000	-124.684891
31898.437500	-124.726120
31921.875000	-124.680901
31945.312500	-124.581215
31968.750000	-124.620270
31992.187500	-124.723839
32015.625000	-124.787376
32039.062500	-124.789734
32062.500000	-124.749123
32085.937500	-124.765373
32109.375000	-124.794113
32132.812500	-124.701599
32156.250000	-124.730865
32179.687500	-124.728622
32203.125000	-124.746208
32226.562500	-124.748009
32250.000000	-124.729218
32273.437500	-124.762848
32296.875000	-124.804268
32320.312500	-124.733757
32343.750000	-124.772598
32367.187500	-124.839119
32390.625000	-124.820145
32414.062500	-124.734947
32437.500000	-124.701698
32460.937500	-124.716942
32484.375000	-124.665428
32507.812500	-124.655014
32531.250000	-124.730949
32554.687500	-124.836868
32578.125000	-124.850037
32601.562500	-124.723061
32625.000000	-124.617073
32648.437500	-124.580612
32671.875000	-124.668266
32695.312500	-124.775032
32718.750000	-124.833015
32742.187500	-124.734665
32765.625000	-124.684967
32789.062500	-124.731194
32812.500000	-124.767685
32835.937500	-124.739281
32859.375000	-124.695335
32882.812500	-124.723610
32906.250000	-124.763634
32929.687500	-124.782318
32953.125000	-124.790405
32976.562500	-124.577721
33000.000000	-123.966553
33023.437500	-124.559784
33046.875000	-124.832565
33070.312500	-124.817230
33093.750000	-124.741722
33117.187500	-124.722961
33140.625000	-124.742363
33164.062500	-124.878395
33187.500000	-124.972115
33210.937500	-124.845535
33234.375000	-124.772125
33257.812500	-124.800926
33281.250000	-124.843834
33304.687500	-124.745377
33328.125000	-124.822746
33351.562500	-124.853249
33375.000000	-124.846291
33398.437500	-124.869247
33421.875000	-124.906616
33445.312500	-124.897301
33468.750000	-124.742958
33492.187500	-124.750389
33515.625000	-124.865852
33539.062500	-124.874435
33562.500000	-124.841843
33585.937500	-124.775375
33609.375000	-124.687920
33632.812500	-124.580437
33656.250000	-124.627975
33679.687500	-124.733002
33703.125000	-124.674904
33726.562500	-124.683693
33750.000000	-124.731064
33773.437500	-124.792923
33796.875000	-124.818863
33820.312500	-124.731880
33843.750000	-124.748169
33867.187500	-124.720879
33890.625000	-124.666115
33914.062500	-124.655914
33937.500000	-124.796257
33960.937500	-124.779060
33984.375000	-124.830490
34007.812500	-124.816452
34031.250000	-124.797928
34054.687500	-124.738770
34078.125000	-124.797333
34101.562500	-124.822090
34125.000000	-124.857040
34148.437500	-124.776268
34171.875000	-124.695282
34195.312500	-124.737366
34218.750000	-124.838806
34242.187500	-124.889740
34265.625000	-124.869141
34289.062500	-124.882706
34312.500000	-124.772667
34335.937500	-124.761269
34359.375000	-124.759468
34382.812500	-124.856316
34406.250000	-124.859062
34429.687500	-124.828018
34453.125000	-124.814003
34476.562500	-124.711418
34500.000000	-124.331841
34523.437500	-124.663322
34546.875000	-124.880371
34570.312500	-124.909050
34593.750000	-124.917381
34617.187500	-124.906425
34640.625000	-124.902222
34664.062500	-124.940605
34687.500000	-124.831390
34710.937500	-124.944946
34734.375000	-124.915520
34757.812500	-124.891266
34781.250000	-124.930046
34804.687500	-124.829346
34828.125000	-124.853134
34851.562500	-124.911949
34875.000000	-124.889145
34898.437500	-124.867477
34921.875000	-124.884819
34945.312500	-124.892769
34968.750000	-124.882782
34992.187500	-124.852676
35015.625000	-124.827995
35039.062500	-124.842949
35062.500000	-124.803726
35085.937500	-124.812988
35109.375000	-124.896141
35132.812500	-124.964882
35156.250000	-124.976158
35179.687500	-124.906609
35203.125000	-124.886375
35226.562500	-124.955399
35250.000000	-124.994514
35273.437500	-124.809967
35296.875000	-124.881378
35320.312500	-124.967003
35343.750000	-124.936768
35367.187500	-124.793411
35390.625000	-124.821236
35414.062500	-124.908836
35437.500000	-124.922127
35460.937500	-124.965172
35484.375000	-124.934395
35507.812500	-124.904915
35531.250000	-124.887383
35554.687500	-124.971405
35578.125000	-124.998184
35601.562500	-124.930420
35625.000000	-124.854828
35648.437500	-124.773628
35671.875000	-124.906471
35695.312500	-124.940125
35718.750000	-124.912102
35742.187500	-124.866104
35765.625000	-124.890785
35789.062500	-124.895309
35812.500000	-124.885788
35835.937500	-124.862045
35859.375000	-124.937317
35882.812500	-124.975403
35906.250000	-124.962029
35929.687500	-124.915459
35953.125000	-125.029076
35976.562500	-124.925835
36000.000000	-124.770866
36023.437500	-124.997856
36046.875000	-125.079094
36070.312500	-125.056152
36093.750000	-125.040459
36117.187500	-124.989716
36140.625000	-124.990250
36164.062500	-125.075462
36187.500000	-125.064926
36210.937500	-124.939140
36234.375000	-124.917656
36257.812500	-124.991051
36281.250000	-124.946770
36304.687500	-124.977699
36328.125000	-124.972755
36351.562500	-124.918953
36375.000000	-125.016708
36398.437500	-124.925766
36421.875000	-124.936485
36445.312500	-125.033638
36468.750000	-125.060341
36492.187500	-125.070595
36515.625000	-125.027534
36539.062500	-125.107613
36562.500000	-125.041031
36585.937500	-124.973389
36609.375000	-125.062561
36632.812500	-125.070122
36656.250000	-125.030869
36679.687500	-124.926819
36703.125000	-125.011200
36726.562500	-125.022949
36750.000000	-124.961082
36773.437500	-124.999519
36796.875000	-125.003113
36820.312500	-124.923073
36843.750000	-125.059387
36867.187500	-124.986595
36890.625000	-125.006256
36914.062500	-124.952774
36937.500000	-125.021942
36960.937500	-125.129120
36984.375000	-125.036247
37007.812500	-125.066307
37031.250000	-125.030853
37054.687500	-124.964767
37078.125000	-124.990631
37101.562500	-125.063210
37125.000000	-125.070564
37148.437500	-124.988235
37171.875000	-124.988808
37195.312500	-125.000648
37218.750000	-125.030083
37242.187500	-125.078568
37265.625000	-125.096985
37289.062500	-125.109558
37312.500000	-125.081024
37335.937500	-125.124504
37359.375000	-125.028183
37382.812500	-124.923973
37406.250000	-124.998383
37429.687500	-125.002106
37453.125000	-124.970703
37476.562500	-125.093040
37500.000000	-125.050911
37523.437500	-124.991264
37546.875000	-125.006157
37570.312500	-125.082634
37593.750000	-125.041336
37617.187500	-124.989258
37640.625000	-124.972343
37664.062500	-124.927650
37687.500000	-125.027359
37710.937500	-125.063889
37734.375000	-125.140366
37757.812500	-125.162842
37781.250000	-125.013832
37804.687500	-125.017654
37828.125000	-125.006241
37851.562500	-124.950706
37875.000000	-124.965210
37898.437500	-124.960434
37921.875000	-124.969604
37945.312500	-124.919662
37968.750000	-124.857361
37992.187500	-124.875832
38015.625000	-124.836533
38039.062500	-124.831772
38062.500000	-124.626854
38085.937500	-124.583565
38109.375000	-124.645737
38132.812500	-124.486046
38156.250000	-124.314468
38179.687500	-123.882881
38203.125000	-123.719925
38226.562500	-122.884888
38250.000000	-121.984833
38273.437500	-121.391373
38296.875000	-119.669327
38320.312500	-120.021034
38343.750000	-121.226234
38367.187500	-121.579445
38390.625000	-121.543640
38414.062500	-120.927498
38437.500000	-121.510284
38460.937500	-121.620728
38484.375000	-121.672882
38507.812500	-122.108101
38531.250000	-122.202370
38554.687500	-122.747719
38578.125000	-122.971634
38601.562500	-122.817421
38625.000000	-122.947510
38648.437500	-123.274551
38671.875000	-123.565605
38695.312500	-123.703400
38718.750000	-123.743347
38742.187500	-123.744911
38765.625000	-123.857460
38789.062500	-123.860847
38812.500000	-123.821678
38835.937500	-124.038635
38859.375000	-124.215012
38882.812500	-124.135315
38906.250000	-124.240898
38929.687500	-124.544212
38953.125000	-124.725418
38976.562500	-124.814896
39000.000000	-124.753578
39023.437500	-124.720154
39046.875000	-124.760033
39070.312500	-124.765450
39093.750000	-124.861938
39117.187500	-125.024963
39140.625000	-125.005653
39164.062500	-124.955315
39187.500000	-124.892441
39210.937500	-124.770020
39234.375000	-124.822395
39257.812500	-124.889122
39281.250000	-124.980324
39304.687500	-125.038437
39328.125000	-124.998207
39351.562500	-125.022377
39375.000000	-125.014610
39398.437500	-124.946381
39421.875000	-124.917702
39445.312500	-125.014923
39468.750000	-125.126686
39492.187500	-125.189499
39515.625000	-125.165359
39539.062500	-125.058968
39562.500000	-125.061119
39585.937500	-125.211388
39609.375000	-125.145187
39632.812500	-125.086212
39656.250000	-125.128311
39679.687500	-125.093552
39703.125000	-125.092346
39726.562500	-125.138298
39750.000000	-125.098526
39773.437500	-125.015244
39796.875000	-125.165985
39820.312500	-125.167313
39843.750000	-125.049042
39867.187500	-125.173454
39890.625000	-125.212090
39914.062500	-125.084053
39937.500000	-125.047874
39960.937500	-125.140495
39984.375000	-125.198509
40007.812500	-125.191711
40031.250000	-125.258110
40054.687500	-125.209557
40078.125000	-125.271294
40101.562500	-125.280281
40125.000000	-125.273857
40148.437500	-125.209625
40171.875000	-125.244965
40195.312500	-125.266891
40218.750000	-125.104080
40242.187500	-124.591133
40265.625000	-122.868805
40289.062500	-124.150368
40312.500000	-125.133293
40335.937500	-125.160095
40359.375000	-125.266586
40382.812500	-125.238396
40406.250000	-125.200432
40429.687500	-125.143898
40453.125000	-125.130859
40476.562500	-124.998680
40500.000000	-124.573402
40523.437500	-125.004692
40546.875000	-125.201607
40570.312500	-125.131935
40593.750000	-125.141991
40617.187500	-125.211754
40640.625000	-125.194527
40664.062500	-125.149635
40687.500000	-125.143127
40710.937500	-125.139702
40734.375000	-125.194641
40757.812500	-125.131737
40781.250000	-125.168671
40804.687500	-125.161194
40828.125000	-125.200325
40851.562500	-125.251572
40875.000000	-125.222397
40898.437500	-125.200760
40921.875000	-125.169914
40945.312500	-125.230774
40968.750000	-125.139740
40992.187500	-125.138748
41015.625000	-125.248474
41039.062500	-125.264359
41062.500000	-125.401688
41085.937500	-125.257095
41109.375000	-125.281204
41132.812500	-125.283661
41156.250000	-125.296463
41179.687500	-125.291016
41203.125000	-125.301537
41226.562500	-125.323662
41250.000000	-125.265976
41273.437500	-125.266342
41296.875000	-125.236618
41320.312500	-125.237480
41343.750000	-125.284271
41367.187500	-125.306831
41390.625000	-125.295715
41414.062500	-125.289574
41437.500000	-125.357849
41460.937500	-125.391449
41484.375000	-125.358452
41507.812500	-125.370850
41531.250000	-125.368500
41554.687500	-125.315964
41578.125000	-125.339424
41601.562500	-125.291656
41625.000000	-125.364532
41648.437500	-125.440552
41671.875000	-125.381927
41695.312500	-125.305511
41718.750000	-125.421219
41742.187500	-125.380577
41765.625000	-125.363914
41789.062500	-125.457512
41812.500000	-125.470329
41835.937500	-125.367836
41859.375000	-125.389931
41882.812500	-125.455124
41906.250000	-125.448502
41929.687500	-125.466515
41953.125000	-125.442780
41976.562500	-125.343132
42000.000000	-124.978951
42023.437500	-125.370506
42046.875000	-125.457809
42070.312500	-125.461922
42093.750000	-125.510185
42117.187500	-125.543686
42140.625000	-125.537872
42164.062500	-125.486649
42187.500000	-125.456017
42210.937500	-125.431229
42234.375000	-125.508125
42257.812500	-125.453842
42281.250000	-125.568825
42304.687500	-125.542862
42328.125000	-125.459167
42351.562500	-125.434692
42375.000000	-125.529053
42398.437500	-125.602974
42421.875000	-125.619675
42445.312500	-125.584625
42468.750000	-125.542351
42492.187500	-125.669876
42515.625000	-125.531410
42539.062500	-125.599083
42562.500000	-125.681694
42585.937500	-125.691284
42609.375000	-125.680374
42632.812500	-125.570168
42656.250000	-125.594948
42679.687500	-125.651947
42703.125000	-125.563271
42726.562500	-125.612671
42750.000000	-125.713501
42773.437500	-125.626289
42796.875000	-125.743118
42820.312500	-125.698662
42843.750000	-125.665260
42867.187500	-125.764961
42890.625000	-125.717178
42914.062500	-125.743416
42937.500000	-125.706055
42960.937500	-125.746368
42984.375000	-125.828911
43007.812500	-125.754539
43031.250000	-125.766975
43054.687500	-125.831627
43078.125000	-125.806473
43101.562500	-125.888176
43125.000000	-125.845482
43148.437500	-125.828163
43171.875000	-125.826180
43195.312500	-125.870033
43218.750000	-125.911095
43242.187500	-125.950119
43265.625000	-125.878647
43289.062500	-125.899475
43312.500000	-125.905983
43335.937500	-125.844299
43359.375000	-125.786774
43382.812500	-125.850838
43406.250000	-125.942467
43429.687500	-126.042976
43453.125000	-126.068344
43476.562500	-125.879379
43500.000000	-125.389999
43523.437500	-125.882996
43546.875000	-126.058205
43570.312500	-126.070953
43593.750000	-126.064133
43617.187500	-126.093536
43640.625000	-126.131989
43664.062500	-126.219292
43687.500000	-126.177765
43710.937500	-126.180168
43734.375000	-126.145500
43757.812500	-126.194923
43781.250000	-126.195404
43804.687500	-126.191818
43828.125000	-126.151855
43851.562500	-126.221146
43875.000000	-126.384277
43898.437500	-126.364197
43921.875000	-126.277214
43945.312500	-126.236259
43968.750000	-126.281364
43992.187500	-126.320053
44015.625000	-126.251228
44039.062500	-126.302406
44062.500000	-126.304909
44085.937500	-126.309082
44109.375000	-126.460564
44132.812500	-126.388481
44156.250000	-126.387909
44179.687500	-126.317986
44203.125000	-126.341232
44226.562500	-126.440048
44250.000000	-126.504189
44273.437500	-126.527916
44296.875000	-126.360229
44320.312500	-126.315887
44343.750000	-126.491989
44367.187500	-126.504967
44390.625000	-126.495758
44414.062500	-126.553368
44437.500000	-126.523949
44460.937500	-126.481567
44484.375000	-126.497757
44507.812500	-126.540741
44531.250000	-126.618935
44554.687500	-126.641876
44578.125000	-126.648605
44601.562500	-126.680222
44625.000000	-126.637665
44648.437500	-126.637474
44671.875000	-126.598251
44695.312500	-126.723434
44718.750000	-126.788956
44742.187500	-126.741791
44765.625000	-126.481216
44789.062500	-126.815529
44812.500000	-126.869637
44835.937500	-126.790573
44859.375000	-126.797493
44882.812500	-126.768402
44906.250000	-126.853851
44929.687500	-126.827263
44953.125000	-126.720024
44976.562500	-126.635139
45000.000000	-126.469894
45023.437500	-126.881493
45046.875000	-126.924530
45070.312500	-126.979332
45093.750000	-127.004601
45117.187500	-127.078964
45140.625000	-127.060799
45164.062500	-126.897774
45187.500000	-126.955002
45210.937500	-127.084091
45234.375000	-127.165260
45257.812500	-127.106010
45281.250000	-127.147507
45304.687500	-127.246323
45328.125000	-127.260414
45351.562500	-127.337662
45375.000000	-127.231010
45398.437500	-127.300568
45421.875000	-127.310989
45445.312500	-127.214027
45468.750000	-127.136223
45492.187500	-127.213745
45515.625000	-127.425423
45539.062500	-127.455505
45562.500000	-127.371086
45585.937500	-127.361420
45609.375000	-127.410889
45632.812500	-127.449142
45656.250000	-127.494087
45679.687500	-127.482765
45703.125000	-127.538071
45726.562500	-127.603249
45750.000000	-127.578270
45773.437500	-127.579536
45796.875000	-127.644577
45820.312500	-127.619789
45843.750000	-127.518417
45867.187500	-127.537842
45890.625000	-127.743561
45914.062500	-127.729309
45937.500000	-127.694649
45960.937500	-127.667740
45984.375000	-127.755814
46007.812500	-127.780533
46031.250000	-127.764320
46054.687500	-127.665215
46078.125000	-127.710434
46101.562500	-127.950974
46125.000000	-127.927155
46148.437500	-127.685120
46171.875000	-127.660355
46195.312500	-127.936966
46218.750000	-127.939812
46242.187500	-127.135117
46265.625000	-127.343315
46289.062500	-128.003540
46312.500000	-128.037064
46335.937500	-127.896935
46359.375000	-127.723564
46382.812500	-127.939934
46406.250000	-128.166397
46429.687500	-128.164932
46453.125000	-128.099518
46476.562500	-128.001999
46500.000000	-127.909416
46523.437500	-128.218048
46546.875000	-128.257538
46570.312500	-128.231750
46593.750000	-128.211105
46617.187500	-128.285614
46640.625000	-128.380371
46664.062500	-128.409790
46687.500000	-128.445282
46710.937500	-128.089127
46734.375000	-128.157028
46757.812500	-128.421295
46781.250000	-128.402466
46804.687500	-127.154770
46828.125000	-126.840385
46851.562500	-128.342041
46875.000000	-128.351334
46898.437500	-128.281097
46921.875000	-128.082367
46945.312500	-128.479980
46968.750000	-128.604004
46992.187500	-128.457870
47015.625000	-128.431549
47039.062500	-128.478394
47062.500000	-128.555511
47085.937500	-128.579620
47109.375000	-128.639236
47132.812500	-128.627914
47156.250000	-128.713821
47179.687500	-128.647476
47203.125000	-128.612823
47226.562500	-128.691086
47250.000000	-128.755722
47273.437500	-128.721039
47296.875000	-128.804642
47320.312500	-128.715073
47343.750000	-128.699112
47367.187500	-128.739929
47390.625000	-128.771973
47414.062500	-128.752197
47437.500000	-128.790039
47460.937500	-128.856247
47484.375000	-128.855133
47507.812500	-128.763046
47531.250000	-128.818695
47554.687500	-128.864899
47578.125000	-128.885071
47601.562500	-128.806305
47625.000000	-128.804657
47648.437500	-128.847733
47671.875000	-128.945801
47695.312500	-128.930008
47718.750000	-128.871902
47742.187500	-128.882767
47765.625000	-128.989716
47789.062500	-128.882477
47812.500000	-128.810913
47835.937500	-128.766327
47859.375000	-128.949539
47882.812500	-128.948227
47906.250000	-128.871948
47929.687500	-128.820251
47953.125000	-128.850220
47976.562500	-128.836960
