주파수 (Hz)	레벨 (dB)
23.437500	-100.957542
46.875000	-95.875504
70.312500	-81.614227
93.750000	-70.456345
117.187500	-63.805996
140.625000	-61.078751
164.062500	-61.784084
187.500000	-62.464695
210.937500	-63.063812
234.375000	-60.068436
257.812500	-59.023388
281.250000	-58.142921
304.687500	-54.715839
328.125000	-52.761208
351.562500	-56.251877
375.000000	-58.735340
398.437500	-61.189186
421.875000	-63.178158
445.312500	-60.548534
468.750000	-56.092129
492.187500	-58.216389
515.625000	-61.915169
539.062500	-57.870659
562.500000	-55.428341
585.937500	-62.974030
609.375000	-54.146561
632.812500	-52.129375
656.250000	-56.256237
679.687500	-59.931961
703.125000	-67.265846
726.562500	-59.442146
750.000000	-57.137341
773.437500	-65.059196
796.875000	-68.127884
820.312500	-56.987320
843.750000	-56.280506
867.187500	-67.201988
890.625000	-74.353058
914.062500	-72.660339
937.500000	-68.889565
960.937500	-67.741661
984.375000	-59.922043
1007.812500	-62.395634
1031.250000	-74.644470
1054.687500	-73.933441
1078.125000	-77.031921
1101.562500	-74.417091
1125.000000	-75.214264
1148.437500	-81.525986
1171.875000	-78.332863
1195.312500	-80.163620
1218.750000	-74.490440
1242.187500	-65.642426
1265.625000	-67.370171
1289.062500	-74.123466
1312.500000	-67.357880
1335.937500	-68.136749
1359.375000	-78.186729
1382.812500	-79.222137
1406.250000	-75.658607
1429.687500	-78.843513
1453.125000	-76.653183
1476.562500	-67.061180
1500.000000	-66.449905
1523.437500	-76.461998
1546.875000	-82.321037
1570.312500	-80.435249
1593.750000	-81.650246
1617.187500	-80.471489
1640.625000	-67.736389
1664.062500	-59.943604
1687.500000	-62.404366
1710.937500	-75.951019
1734.375000	-83.452698
1757.812500	-85.295570
1781.250000	-87.800423
1804.687500	-92.396584
1828.125000	-92.131752
1851.562500	-85.400604
1875.000000	-77.563393
1898.437500	-79.999138
1921.875000	-91.146332
1945.312500	-91.053535
1968.750000	-80.556015
1992.187500	-75.868462
2015.625000	-80.940506
2039.062500	-93.897064
2062.500000	-92.683609
2085.937500	-87.371735
2109.375000	-85.944580
2132.812500	-91.417755
2156.250000	-99.497444
2179.687500	-91.934082
2203.125000	-85.370743
2226.562500	-85.696838
2250.000000	-85.403641
2273.437500	-93.500969
2296.875000	-99.347656
2320.312500	-94.426956
2343.750000	-89.151550
2367.187500	-89.038124
2390.625000	-92.999847
2414.062500	-99.494263
2437.500000	-99.215302
2460.937500	-98.143997
2484.375000	-89.349045
2507.812500	-82.994011
2531.250000	-84.381714
2554.687500	-93.185921
2578.125000	-100.085304
2601.562500	-100.236183
2625.000000	-99.758171
2648.437500	-90.743462
2671.875000	-85.027649
2695.312500	-89.719788
2718.750000	-101.415588
2742.187500	-102.717842
2765.625000	-100.898117
2789.062500	-98.965927
2812.500000	-94.806404
2835.937500	-92.042046
2859.375000	-95.698097
2882.812500	-104.328262
2906.250000	-105.855392
2929.687500	-103.943321
2953.125000	-98.962036
2976.562500	-95.204102
3000.000000	-91.656708
3023.437500	-93.805824
3046.875000	-101.164719
3070.312500	-103.039589
3093.750000	-99.544266
3117.187500	-101.931366
3140.625000	-99.821205
3164.062500	-92.720093
3187.500000	-94.844826
3210.937500	-98.722511
3234.375000	-104.272202
3257.812500	-107.311073
3281.250000	-106.337234
3304.687500	-104.150406
3328.125000	-95.229027
3351.562500	-88.091316
3375.000000	-87.880089
3398.437500	-94.473740
3421.875000	-104.328644
3445.312500	-109.769096
3468.750000	-110.870956
3492.187500	-107.209465
3515.625000	-101.665115
3539.062500	-99.612328
3562.500000	-104.181732
3585.937500	-107.581253
3609.375000	-106.403435
3632.812500	-107.765038
3656.250000	-110.595627
3679.687500	-111.546242
3703.125000	-111.055130
3726.562500	-109.204865
3750.000000	-97.242882
3773.437500	-92.294212
3796.875000	-94.815338
3820.312500	-98.687378
3843.750000	-100.629974
3867.187500	-105.383743
3890.625000	-110.750404
3914.062500	-111.911186
3937.500000	-111.642532
3960.937500	-109.974876
3984.375000	-104.489006
4007.812500	-99.165222
4031.250000	-97.689697
4054.687500	-100.385170
4078.125000	-104.635216
4101.562500	-109.729141
4125.000000	-111.380318
4148.437500	-109.370590
4171.875000	-109.219284
4195.312500	-109.060997
4218.750000	-104.468628
4242.187500	-96.698112
4265.625000	-97.229111
4289.062500	-106.528435
4312.500000	-111.547501
4335.937500	-109.882942
4359.375000	-111.348251
4382.812500	-112.955231
4406.250000	-114.232079
4429.687500	-113.935257
4453.125000	-113.182655
4476.562500	-103.292206
4500.000000	-100.469109
4523.437500	-107.241989
4546.875000	-104.838799
4570.312500	-100.565514
4593.750000	-103.795425
4617.187500	-111.420250
4640.625000	-114.415871
4664.062500	-115.405983
4687.500000	-116.144157
4710.937500	-116.211662
4734.375000	-110.492027
4757.812500	-99.299484
4781.250000	-98.484802
4804.687500	-105.549324
4828.125000	-113.806900
4851.562500	-115.678589
4875.000000	-115.914680
4898.437500	-115.992912
4921.875000	-116.071617
4945.312500	-116.229050
4968.750000	-116.226936
4992.187500	-115.840897
5015.625000	-115.009239
5039.062500	-114.308220
5062.500000	-107.598701
5085.937500	-103.243134
5109.375000	-103.637283
5132.812500	-103.647720
5156.250000	-104.215050
5179.687500	-107.035561
5203.125000	-113.291870
5226.562500	-116.825768
5250.000000	-117.642738
5273.437500	-117.577835
5296.875000	-117.480064
5320.312500	-117.777252
5343.750000	-117.690392
5367.187500	-115.332787
5390.625000	-106.780327
5414.062500	-106.857002
5437.500000	-114.944740
5460.937500	-115.702003
5484.375000	-111.960625
5507.812500	-113.431175
5531.250000	-116.410385
5554.687500	-116.696762
5578.125000	-117.523186
5601.562500	-117.512932
5625.000000	-117.677513
5648.437500	-117.896477
5671.875000	-117.903542
5695.312500	-117.124596
5718.750000	-116.955353
5742.187500	-117.498413
5765.625000	-116.927101
5789.062500	-117.012993
5812.500000	-116.788826
5835.937500	-116.805336
5859.375000	-117.742073
5882.812500	-117.197708
5906.250000	-116.929977
5929.687500	-118.018723
5953.125000	-118.434624
5976.562500	-117.986198
6000.000000	-117.371559
6023.437500	-117.630562
6046.875000	-116.588066
6070.312500	-113.568283
6093.750000	-110.918457
6117.187500	-114.092178
6140.625000	-117.121613
6164.062500	-114.023735
6187.500000	-113.268265
6210.937500	-113.096367
6234.375000	-111.984108
6257.812500	-115.076584
6281.250000	-115.466728
6304.687500	-115.960159
6328.125000	-117.699387
6351.562500	-117.981628
6375.000000	-117.736458
6398.437500	-117.934967
6421.875000	-118.092216
6445.312500	-118.120110
6468.750000	-117.592232
6492.187500	-116.664749
6515.625000	-116.926071
6539.062500	-117.676544
6562.500000	-118.081879
6585.937500	-117.930756
6609.375000	-117.992195
6632.812500	-117.920052
6656.250000	-117.690193
6679.687500	-117.519157
6703.125000	-117.732040
6726.562500	-118.183151
6750.000000	-118.368446
6773.437500	-117.754501
6796.875000	-117.765633
6820.312500	-118.054024
6843.750000	-118.069756
6867.187500	-117.914459
6890.625000	-117.015297
6914.062500	-116.485153
6937.500000	-116.670166
6960.937500	-117.693359
6984.375000	-116.173912
7007.812500	-113.438385
7031.250000	-113.242409
7054.687500	-115.775566
7078.125000	-113.953407
7101.562500	-115.020409
7125.000000	-117.370125
7148.437500	-117.382820
7171.875000	-117.738945
7195.312500	-117.383209
7218.750000	-117.174187
7242.187500	-117.682526
7265.625000	-117.512718
7289.062500	-115.111137
7312.500000	-114.397751
7335.937500	-115.650101
7359.375000	-117.825127
7382.812500	-117.916451
7406.250000	-117.636009
7429.687500	-117.873810
7453.125000	-118.197845
7476.562500	-118.155632
7500.000000	-117.581886
7523.437500	-117.780014
7546.875000	-118.483955
7570.312500	-118.333191
7593.750000	-118.190468
7617.187500	-117.915039
7640.625000	-118.085121
7664.062500	-118.375305
7687.500000	-118.385025
7710.937500	-118.266449
7734.375000	-118.388557
7757.812500	-118.404213
7781.250000	-118.131340
7804.687500	-117.922577
7828.125000	-118.242439
7851.562500	-117.987511
7875.000000	-117.021309
7898.437500	-117.641113
7921.875000	-117.825569
7945.312500	-117.031967
7968.750000	-116.219475
7992.187500	-115.219124
8015.625000	-115.863457
8039.062500	-117.950531
8062.500000	-117.960625
8085.937500	-118.208717
8109.375000	-118.481697
8132.812500	-118.485519
8156.250000	-118.542336
8179.687500	-118.810234
8203.125000	-118.796188
8226.562500	-118.682098
8250.000000	-118.745270
8273.437500	-118.604805
8296.875000	-118.462128
8320.312500	-118.600540
8343.750000	-118.619896
8367.187500	-118.277008
8390.625000	-117.692917
8414.062500	-116.931740
8437.500000	-116.442528
8460.937500	-116.341850
8484.375000	-116.630081
8507.812500	-117.860115
8531.250000	-118.873779
8554.687500	-118.883789
8578.125000	-118.752281
8601.562500	-118.685898
8625.000000	-118.927162
8648.437500	-119.008247
8671.875000	-119.059959
8695.312500	-118.952507
8718.750000	-118.892494
8742.187500	-119.079765
8765.625000	-119.202614
8789.062500	-119.089722
8812.500000	-119.271126
8835.937500	-119.374954
8859.375000	-119.121857
8882.812500	-118.874268
8906.250000	-118.954979
8929.687500	-118.957458
8953.125000	-118.993790
8976.562500	-117.901352
9000.000000	-115.875153
9023.437500	-117.730148
9046.875000	-119.148293
9070.312500	-119.147667
9093.750000	-118.684685
9117.187500	-118.450485
9140.625000	-119.221275
9164.062500	-119.343277
9187.500000	-119.426064
9210.937500	-119.709869
9234.375000	-119.701271
9257.812500	-119.476135
9281.250000	-119.195351
9304.687500	-119.175667
9328.125000	-119.559753
9351.562500	-119.770226
9375.000000	-119.678116
9398.437500	-119.616463
9421.875000	-119.521858
9445.312500	-119.614990
9468.750000	-119.528465
9492.187500	-119.481590
9515.625000	-119.740929
9539.062500	-119.950066
9562.500000	-119.983070
9585.937500	-119.894020
9609.375000	-119.801048
9632.812500	-119.676285
9656.250000	-119.575317
9679.687500	-118.581787
9703.125000	-118.151733
9726.562500	-119.234665
9750.000000	-119.249451
9773.437500	-119.904091
9796.875000	-120.092941
9820.312500	-120.070999
9843.750000	-120.066101
9867.187500	-120.137955
9890.625000	-120.189957
9914.062500	-120.056404
9937.500000	-119.955360
9960.937500	-119.996429
9984.375000	-120.061951
10007.812500	-120.024155
10031.250000	-120.068695
10054.687500	-120.092651
10078.125000	-120.140724
10101.562500	-120.243790
10125.000000	-120.375771
10148.437500	-120.250526
10171.875000	-120.200012
10195.312500	-120.282951
10218.750000	-120.348137
10242.187500	-120.385284
10265.625000	-120.283234
10289.062500	-120.289413
10312.500000	-120.295532
10335.937500	-120.251404
10359.375000	-120.310677
10382.812500	-120.327599
10406.250000	-120.387733
10429.687500	-120.371277
10453.125000	-120.442245
10476.562500	-118.399483
10500.000000	-115.108864
10523.437500	-118.336273
10546.875000	-120.501587
10570.312500	-120.489624
10593.750000	-120.504623
10617.187500	-120.539459
10640.625000	-120.639671
10664.062500	-120.702850
10687.500000	-120.724426
10710.937500	-120.698174
10734.375000	-120.675217
10757.812500	-120.602463
10781.250000	-120.567009
10804.687500	-120.706726
10828.125000	-120.718292
10851.562500	-120.718002
10875.000000	-120.792747
10898.437500	-120.660126
10921.875000	-120.489937
10945.312500	-120.543205
10968.750000	-120.636917
10992.187500	-120.620003
11015.625000	-120.724655
11039.062500	-120.705643
11062.500000	-120.763428
11085.937500	-120.751404
11109.375000	-120.693413
11132.812500	-120.805099
11156.250000	-120.902100
11179.687500	-120.830978
11203.125000	-120.827354
11226.562500	-120.815697
11250.000000	-120.753754
11273.437500	-120.887909
11296.875000	-120.981369
11320.312500	-120.875992
11343.750000	-120.906128
11367.187500	-120.841072
11390.625000	-120.839241
11414.062500	-120.871956
11437.500000	-120.928566
11460.937500	-120.910912
11484.375000	-121.004364
11507.812500	-120.919373
11531.250000	-120.963898
11554.687500	-120.862984
11578.125000	-120.915459
11601.562500	-121.015274
11625.000000	-120.882843
11648.437500	-120.798996
11671.875000	-120.878799
11695.312500	-120.833183
11718.750000	-120.531601
11742.187500	-120.236610
11765.625000	-119.827660
11789.062500	-119.777603
11812.500000	-119.952553
11835.937500	-120.403648
11859.375000	-120.683105
11882.812500	-120.845695
11906.250000	-121.041710
11929.687500	-121.030136
11953.125000	-121.017174
11976.562500	-118.964668
12000.000000	-115.744041
12023.437500	-118.981750
12046.875000	-120.908043
12070.312500	-120.910454
12093.750000	-121.055084
12117.187500	-121.149124
12140.625000	-121.234406
12164.062500	-121.284073
12187.500000	-121.147530
12210.937500	-121.154099
12234.375000	-121.233063
12257.812500	-121.147606
12281.250000	-121.164734
12304.687500	-121.201935
12328.125000	-121.188713
12351.562500	-121.126022
12375.000000	-121.208855
12398.437500	-121.296272
12421.875000	-121.345474
12445.312500	-121.304070
12468.750000	-121.334412
12492.187500	-121.328972
12515.625000	-121.401909
12539.062500	-121.300682
12562.500000	-121.074638
12585.937500	-120.530380
12609.375000	-119.537666
12632.812500	-119.148491
12656.250000	-119.455597
12679.687500	-120.048767
12703.125000	-120.333916
12726.562500	-120.581886
12750.000000	-121.156807
12773.437500	-121.327637
12796.875000	-121.156570
12820.312500	-121.344940
12843.750000	-121.615944
12867.187500	-121.582298
12890.625000	-121.421021
12914.062500	-121.400742
12937.500000	-121.415154
12960.937500	-121.370506
12984.375000	-121.527939
13007.812500	-121.642677
13031.250000	-121.645821
13054.687500	-121.549156
13078.125000	-121.635071
13101.562500	-121.741058
13125.000000	-121.672295
13148.437500	-121.610596
13171.875000	-121.490860
13195.312500	-121.540550
13218.750000	-121.737053
13242.187500	-121.755653
13265.625000	-121.834198
13289.062500	-121.785835
13312.500000	-121.790695
13335.937500	-121.908508
13359.375000	-121.988762
13382.812500	-121.766975
13406.250000	-121.798950
13429.687500	-121.918419
13453.125000	-121.899879
13476.562500	-120.460884
13500.000000	-117.948456
13523.437500	-120.518661
13546.875000	-121.986427
13570.312500	-121.929207
13593.750000	-121.892372
13617.187500	-121.968254
13640.625000	-122.023827
13664.062500	-121.992775
13687.500000	-121.980118
13710.937500	-121.935860
13734.375000	-121.839302
13757.812500	-121.945641
13781.250000	-122.034729
13804.687500	-122.020027
13828.125000	-122.006126
13851.562500	-121.962494
13875.000000	-122.050240
13898.437500	-122.001083
13921.875000	-122.015144
13945.312500	-121.972183
13968.750000	-121.985817
13992.187500	-122.088699
14015.625000	-122.227890
14039.062500	-122.216484
14062.500000	-122.186821
14085.937500	-122.180412
14109.375000	-121.970421
14132.812500	-122.194496
14156.250000	-122.286873
14179.687500	-122.302872
14203.125000	-122.263168
14226.562500	-122.255157
14250.000000	-122.285439
14273.437500	-122.411446
14296.875000	-122.340576
14320.312500	-122.311508
14343.750000	-122.315849
14367.187500	-122.264915
14390.625000	-122.356247
14414.062500	-122.350052
14437.500000	-122.363960
14460.937500	-122.391525
14484.375000	-122.369247
14507.812500	-122.342484
14531.250000	-122.408844
14554.687500	-122.385765
14578.125000	-122.410942
14601.562500	-122.541298
14625.000000	-122.457108
14648.437500	-122.433037
14671.875000	-122.560814
14695.312500	-122.397873
14718.750000	-122.410355
14742.187500	-122.535049
14765.625000	-122.523712
14789.062500	-122.411896
14812.500000	-122.409622
14835.937500	-122.608986
14859.375000	-122.596680
14882.812500	-122.486786
14906.250000	-122.515236
14929.687500	-122.607491
14953.125000	-122.495888
14976.562500	-121.942299
15000.000000	-120.699028
15023.437500	-122.164604
15046.875000	-122.620735
15070.312500	-122.584236
15093.750000	-122.634720
15117.187500	-122.644463
15140.625000	-122.700294
15164.062500	-122.697739
15187.500000	-122.615463
15210.937500	-122.609810
15234.375000	-122.695053
15257.812500	-122.672211
15281.250000	-122.703476
15304.687500	-122.592964
15328.125000	-122.684166
15351.562500	-122.874374
15375.000000	-122.844368
15398.437500	-122.733498
15421.875000	-122.827797
15445.312500	-122.796799
15468.750000	-122.720131
15492.187500	-122.688522
15515.625000	-122.732254
15539.062500	-122.811363
15562.500000	-122.900566
15585.937500	-122.891365
15609.375000	-122.840942
15632.812500	-122.897026
15656.250000	-122.851410
15679.687500	-122.882896
15703.125000	-122.891937
15726.562500	-122.791161
15750.000000	-122.539215
15773.437500	-122.600533
15796.875000	-122.889145
15820.312500	-122.830513
15843.750000	-122.872345
15867.187500	-122.835289
15890.625000	-122.892632
15914.062500	-122.809303
15937.500000	-122.835884
15960.937500	-122.890762
15984.375000	-122.866508
16007.812500	-122.968513
16031.250000	-122.858376
16054.687500	-122.867363
16078.125000	-122.899002
16101.562500	-122.957062
16125.000000	-122.971107
16148.437500	-122.998230
16171.875000	-123.033142
16195.312500	-123.063477
16218.750000	-123.006981
16242.187500	-122.959305
16265.625000	-123.021263
16289.062500	-123.045357
16312.500000	-123.026550
16335.937500	-123.085541
16359.375000	-122.976318
16382.812500	-122.980057
16406.250000	-122.957497
16429.687500	-122.981110
16453.125000	-123.147514
16476.562500	-122.718010
16500.000000	-121.671127
16523.437500	-122.513283
16546.875000	-122.962715
16570.312500	-123.039345
16593.750000	-123.107887
16617.187500	-123.101006
16640.625000	-123.062134
16664.062500	-123.103325
16687.500000	-123.127335
16710.937500	-123.100189
16734.375000	-123.100189
16757.812500	-122.981827
16781.250000	-122.749565
16804.687500	-122.215210
16828.125000	-121.769432
16851.562500	-121.763596
16875.000000	-122.160706
16898.437500	-122.365074
16921.875000	-122.426079
16945.312500	-122.678558
16968.750000	-123.020012
16992.187500	-123.174507
17015.625000	-123.213440
17039.062500	-123.206985
17062.500000	-123.146454
17085.937500	-123.204002
17109.375000	-123.253601
17132.812500	-123.307434
17156.250000	-123.291946
17179.687500	-123.350739
17203.125000	-123.258347
17226.562500	-123.307251
17250.000000	-123.346191
17273.437500	-123.334709
17296.875000	-123.331177
17320.312500	-123.336411
17343.750000	-123.338066
17367.187500	-123.399284
17390.625000	-123.453476
17414.062500	-123.339767
17437.500000	-123.273315
17460.937500	-123.306046
17484.375000	-123.395218
17507.812500	-123.364922
17531.250000	-123.287361
17554.687500	-123.316101
17578.125000	-123.348251
17601.562500	-123.379372
17625.000000	-123.347038
17648.437500	-123.424072
17671.875000	-123.405907
17695.312500	-123.452843
17718.750000	-123.378876
17742.187500	-123.283051
17765.625000	-123.274704
17789.062500	-123.422104
17812.500000	-123.496796
17835.937500	-123.469551
17859.375000	-123.568436
17882.812500	-123.447083
17906.250000	-123.402016
17929.687500	-123.498909
17953.125000	-123.481049
17976.562500	-122.917419
18000.000000	-121.577751
18023.437500	-122.865845
18046.875000	-123.387703
18070.312500	-123.360542
18093.750000	-123.360680
18117.187500	-123.422104
18140.625000	-123.449142
18164.062500	-123.516808
18187.500000	-123.585922
18210.937500	-123.505775
18234.375000	-123.554710
18257.812500	-123.520164
18281.250000	-123.505028
18304.687500	-123.537239
18328.125000	-123.472206
18351.562500	-123.497055
18375.000000	-123.518044
18398.437500	-123.490334
18421.875000	-123.453491
18445.312500	-123.462372
18468.750000	-123.457954
18492.187500	-123.461746
18515.625000	-123.553352
18539.062500	-123.479446
18562.500000	-123.412178
18585.937500	-123.469971
18609.375000	-123.495598
18632.812500	-123.411484
18656.250000	-123.438255
18679.687500	-123.461044
18703.125000	-123.477150
18726.562500	-123.506538
18750.000000	-123.383438
18773.437500	-123.081039
18796.875000	-122.855247
18820.312500	-122.732468
18843.750000	-122.638313
18867.187500	-122.523582
18890.625000	-122.348366
18914.062500	-122.240952
18937.500000	-122.467316
18960.937500	-122.439362
18984.375000	-121.885880
19007.812500	-120.896835
19031.250000	-120.006828
19054.687500	-118.391403
19078.125000	-115.804596
19101.562500	-112.575584
19125.000000	-109.946678
19148.437500	-108.682304
19171.875000	-106.949219
19195.312500	-106.095757
19218.750000	-107.981537
19242.187500	-109.719101
19265.625000	-110.244362
19289.062500	-111.215599
19312.500000	-111.077080
19335.937500	-111.785110
19359.375000	-113.148567
19382.812500	-114.246597
19406.250000	-115.317314
19429.687500	-116.836121
19453.125000	-118.169373
19476.562500	-118.906586
19500.000000	-118.953964
19523.437500	-119.947868
19546.875000	-120.599358
19570.312500	-120.613693
19593.750000	-120.433052
19617.187500	-120.437355
19640.625000	-120.606300
19664.062500	-120.920090
19687.500000	-120.975586
19710.937500	-120.984749
19734.375000	-121.282036
19757.812500	-121.606262
19781.250000	-121.685905
19804.687500	-121.827118
19828.125000	-122.179932
19851.562500	-122.686775
19875.000000	-122.881432
19898.437500	-122.847313
19921.875000	-122.982590
19945.312500	-123.011528
19968.750000	-123.060600
19992.187500	-122.882622
20015.625000	-122.550087
20039.062500	-122.517326
20062.500000	-122.499741
20085.937500	-122.374290
20109.375000	-120.005592
20132.812500	-115.854980
20156.250000	-119.190712
20179.687500	-121.998810
20203.125000	-121.862831
20226.562500	-121.927055
20250.000000	-122.160049
20273.437500	-122.109192
20296.875000	-121.885414
20320.312500	-122.058701
20343.750000	-122.234680
20367.187500	-122.311081
20390.625000	-122.429138
20414.062500	-122.376968
20437.500000	-122.304688
20460.937500	-122.359245
20484.375000	-122.464714
20507.812500	-122.567741
20531.250000	-122.680672
20554.687500	-122.689598
20578.125000	-122.851730
20601.562500	-123.021965
20625.000000	-123.144012
20648.437500	-123.274033
20671.875000	-123.227448
20695.312500	-123.260796
20718.750000	-123.450691
20742.187500	-123.423492
20765.625000	-123.429176
20789.062500	-123.561417
20812.500000	-123.629524
20835.937500	-123.647873
20859.375000	-123.645592
20882.812500	-123.598824
20906.250000	-123.594093
20929.687500	-123.578880
20953.125000	-123.477654
20976.562500	-123.087440
21000.000000	-121.979401
21023.437500	-122.505539
21046.875000	-122.884789
21070.312500	-123.080566
21093.750000	-123.346344
21117.187500	-123.351105
21140.625000	-123.087967
21164.062500	-123.191933
21187.500000	-123.491982
21210.937500	-123.625740
21234.375000	-123.625076
21257.812500	-123.642502
21281.250000	-123.644745
21304.687500	-123.627632
21328.125000	-123.678017
21351.562500	-123.756775
21375.000000	-123.772301
21398.437500	-123.789787
21421.875000	-123.745247
21445.312500	-123.658279
21468.750000	-123.659210
21492.187500	-123.687859
21515.625000	-123.672150
21539.062500	-123.626427
21562.500000	-123.652695
21585.937500	-123.689674
21609.375000	-123.678101
21632.812500	-123.669189
21656.250000	-123.493904
21679.687500	-123.583679
21703.125000	-123.659653
21726.562500	-123.622086
21750.000000	-123.709572
21773.437500	-123.726585
21796.875000	-123.684746
21820.312500	-123.656616
21843.750000	-123.692604
21867.187500	-123.595604
21890.625000	-123.501549
21914.062500	-123.553886
21937.500000	-123.663689
21960.937500	-123.670738
21984.375000	-123.559502
22007.812500	-123.513130
22031.250000	-123.526932
22054.687500	-123.472908
22078.125000	-123.263557
22101.562500	-122.993202
22125.000000	-122.772820
22148.437500	-122.742134
22171.875000	-122.671043
22195.312500	-122.475899
22218.750000	-122.172890
22242.187500	-122.098244
22265.625000	-122.303726
22289.062500	-122.468483
22312.500000	-122.323532
22335.937500	-122.233833
22359.375000	-122.418518
22382.812500	-122.604195
22406.250000	-122.663406
22429.687500	-122.637169
22453.125000	-122.826630
22476.562500	-122.651337
22500.000000	-122.207718
22523.437500	-122.487610
22546.875000	-122.482880
22570.312500	-122.578552
22593.750000	-122.704216
22617.187500	-122.651482
22640.625000	-122.219612
22664.062500	-122.150803
22687.500000	-122.360954
22710.937500	-122.228424
22734.375000	-122.058182
22757.812500	-122.010971
22781.250000	-121.978508
22804.687500	-121.910637
22828.125000	-122.178139
22851.562500	-122.384232
22875.000000	-122.423370
22898.437500	-122.629608
22921.875000	-122.758148
22945.312500	-122.734238
22968.750000	-122.858032
22992.187500	-122.939728
23015.625000	-123.156830
23039.062500	-123.249870
23062.500000	-123.327675
23085.937500	-123.406990
23109.375000	-123.393723
23132.812500	-123.408920
23156.250000	-123.374069
23179.687500	-123.308167
23203.125000	-123.422546
23226.562500	-123.528763
23250.000000	-123.421516
23273.437500	-123.428947
23296.875000	-123.369560
23320.312500	-123.195152
23343.750000	-123.196381
23367.187500	-123.343445
23390.625000	-123.318344
23414.062500	-123.414474
23437.500000	-123.497116
23460.937500	-123.498856
23484.375000	-123.651451
23507.812500	-123.672958
23531.250000	-123.751740
23554.687500	-123.789696
23578.125000	-123.837799
23601.562500	-123.900124
23625.000000	-123.993576
23648.437500	-123.994408
23671.875000	-123.949783
23695.312500	-123.914253
23718.750000	-123.883698
23742.187500	-123.974335
23765.625000	-123.969719
23789.062500	-124.011337
23812.500000	-124.008522
23835.937500	-124.025246
23859.375000	-124.103058
23882.812500	-124.082939
23906.250000	-124.048721
23929.687500	-124.113426
23953.125000	-124.085670
23976.562500	-123.913467
24000.000000	-123.696892
24023.437500	-123.991302
24046.875000	-124.140305
24070.312500	-124.122261
24093.750000	-124.136124
24117.187500	-124.174316
24140.625000	-124.126808
24164.062500	-124.073296
24187.500000	-124.074471
24210.937500	-124.113739
24234.375000	-124.128647
24257.812500	-124.165146
24281.250000	-124.197006
24304.687500	-124.294815
24328.125000	-124.202042
24351.562500	-124.188477
24375.000000	-124.115822
24398.437500	-124.134415
24421.875000	-124.219368
24445.312500	-124.300262
24468.750000	-124.279991
24492.187500	-124.254066
24515.625000	-124.255142
24539.062500	-124.197891
24562.500000	-124.123550
24585.937500	-124.199387
24609.375000	-124.179688
24632.812500	-124.180351
24656.250000	-124.209732
24679.687500	-124.328690
24703.125000	-124.291878
24726.562500	-124.187515
24750.000000	-124.288239
24773.437500	-124.280243
24796.875000	-124.233017
24820.312500	-124.179390
24843.750000	-124.188644
24867.187500	-124.242073
24890.625000	-124.187355
24914.062500	-124.202057
24937.500000	-124.180824
24960.937500	-124.225731
24984.375000	-124.263657
25007.812500	-124.250092
25031.250000	-124.182487
25054.687500	-124.242149
25078.125000	-124.217110
25101.562500	-124.224777
25125.000000	-124.249542
25148.437500	-124.328644
25171.875000	-124.185226
25195.312500	-124.066315
25218.750000	-124.009239
25242.187500	-123.941170
25265.625000	-123.924965
25289.062500	-123.956635
25312.500000	-124.164726
25335.937500	-124.069061
25359.375000	-123.964218
25382.812500	-124.009987
25406.250000	-124.144066
25429.687500	-124.201126
25453.125000	-124.214615
25476.562500	-124.216087
25500.000000	-124.024887
25523.437500	-124.193245
25546.875000	-124.246895
25570.312500	-124.258720
25593.750000	-124.306824
25617.187500	-124.356430
25640.625000	-124.358330
25664.062500	-124.294472
25687.500000	-124.246887
25710.937500	-124.300697
25734.375000	-124.342636
25757.812500	-124.321671
25781.250000	-124.258766
25804.687500	-124.322594
25828.125000	-124.368301
25851.562500	-124.350945
25875.000000	-124.349319
25898.437500	-124.318466
25921.875000	-124.287231
25945.312500	-124.288216
25968.750000	-124.361794
25992.187500	-124.313484
26015.625000	-124.286812
26039.062500	-124.323616
26062.500000	-124.264542
26085.937500	-124.268860
26109.375000	-124.358261
26132.812500	-124.364418
26156.250000	-124.418022
26179.687500	-124.381729
26203.125000	-124.326515
26226.562500	-124.330597
26250.000000	-124.356789
26273.437500	-124.417435
26296.875000	-124.368980
26320.312500	-124.349953
26343.750000	-124.392021
26367.187500	-124.393524
26390.625000	-124.346664
26414.062500	-124.390625
26437.500000	-124.426849
26460.937500	-124.406052
26484.375000	-124.518631
26507.812500	-124.510719
26531.250000	-124.460472
26554.687500	-124.518433
26578.125000	-124.441719
26601.562500	-124.429016
26625.000000	-124.439461
26648.437500	-124.384506
26671.875000	-124.350075
26695.312500	-124.398064
26718.750000	-124.481003
26742.187500	-124.533012
26765.625000	-124.440231
26789.062500	-124.426758
26812.500000	-124.386932
26835.937500	-124.388885
26859.375000	-124.383003
26882.812500	-124.367012
26906.250000	-124.262596
26929.687500	-124.373283
26953.125000	-124.397858
26976.562500	-124.351410
27000.000000	-124.252869
27023.437500	-124.311890
27046.875000	-124.379349
27070.312500	-124.349640
27093.750000	-124.241623
27117.187500	-124.350037
27140.625000	-124.373886
27164.062500	-124.430466
27187.500000	-124.499100
27210.937500	-124.477928
27234.375000	-124.418304
27257.812500	-124.477966
27281.250000	-124.487038
27304.687500	-124.407944
27328.125000	-124.397018
27351.562500	-124.411980
27375.000000	-124.524780
27398.437500	-124.401855
27421.875000	-124.342728
27445.312500	-124.420853
27468.750000	-124.520164
27492.187500	-124.533844
27515.625000	-124.451012
27539.062500	-124.543137
27562.500000	-124.524193
27585.937500	-124.505875
27609.375000	-124.481285
27632.812500	-124.516289
27656.250000	-124.470268
27679.687500	-124.492622
27703.125000	-124.492195
27726.562500	-124.484894
27750.000000	-124.455070
27773.437500	-124.556175
27796.875000	-124.542801
27820.312500	-124.428406
27843.750000	-124.454117
27867.187500	-124.559067
27890.625000	-124.435196
27914.062500	-124.404686
27937.500000	-124.438660
27960.937500	-124.455238
27984.375000	-124.373520
28007.812500	-124.441612
28031.250000	-124.475067
28054.687500	-124.544235
28078.125000	-124.477936
28101.562500	-124.510559
28125.000000	-124.581268
28148.437500	-124.622597
28171.875000	-124.500900
28195.312500	-124.501358
28218.750000	-124.462242
28242.187500	-124.466530
28265.625000	-124.509987
28289.062500	-124.501114
28312.500000	-124.545471
28335.937500	-124.512329
28359.375000	-124.473701
28382.812500	-124.440140
28406.250000	-124.474525
28429.687500	-124.521599
28453.125000	-124.463432
28476.562500	-124.378716
28500.000000	-124.388268
28523.437500	-124.427650
28546.875000	-124.478386
28570.312500	-124.518982
28593.750000	-124.521698
28617.187500	-124.485550
28640.625000	-124.515114
28664.062500	-124.581467
28687.500000	-124.491463
28710.937500	-124.469772
28734.375000	-124.487892
28757.812500	-124.535690
28781.250000	-124.574196
28804.687500	-124.547775
28828.125000	-124.528412
28851.562500	-124.568642
28875.000000	-124.491508
28898.437500	-124.507889
28921.875000	-124.501823
28945.312500	-124.464828
28968.750000	-124.513008
28992.187500	-124.506210
29015.625000	-124.529274
29039.062500	-124.505188
29062.500000	-124.453285
29085.937500	-124.458778
29109.375000	-124.440865
29132.812500	-124.500862
29156.250000	-124.536324
29179.687500	-124.563995
29203.125000	-124.584457
29226.562500	-124.556511
29250.000000	-124.507050
29273.437500	-124.479813
29296.875000	-124.510750
29320.312500	-124.538033
29343.750000	-124.576508
29367.187500	-124.551422
29390.625000	-124.542984
29414.062500	-124.435730
29437.500000	-124.334915
29460.937500	-124.252983
29484.375000	-124.205612
29507.812500	-124.364685
29531.250000	-124.461327
29554.687500	-124.374733
29578.125000	-124.335129
29601.562500	-124.382851
29625.000000	-124.416206
29648.437500	-124.496895
29671.875000	-124.526482
29695.312500	-124.557983
29718.750000	-124.582985
29742.187500	-124.575554
29765.625000	-124.570793
29789.062500	-124.625748
29812.500000	-124.638901
29835.937500	-124.540222
29859.375000	-124.616814
29882.812500	-124.672523
29906.250000	-124.547417
29929.687500	-124.531471
29953.125000	-124.599281
29976.562500	-124.567429
30000.000000	-124.283905
30023.437500	-124.478172
30046.875000	-124.513016
30070.312500	-124.568909
30093.750000	-124.599548
30117.187500	-124.649002
30140.625000	-124.635696
30164.062500	-124.504860
30187.500000	-124.513611
30210.937500	-124.570831
30234.375000	-124.771011
30257.812500	-124.735107
30281.250000	-124.692139
30304.687500	-124.657310
30328.125000	-124.576187
30351.562500	-124.529701
30375.000000	-124.658089
30398.437500	-124.677643
30421.875000	-124.515663
30445.312500	-124.591240
30468.750000	-124.558540
30492.187500	-124.552933
30515.625000	-124.575531
30539.062500	-124.614166
30562.500000	-124.605453
30585.937500	-124.583794
30609.375000	-124.529198
30632.812500	-124.603683
30656.250000	-124.590164
30679.687500	-124.659233
30703.125000	-124.705368
30726.562500	-124.665581
30750.000000	-124.593956
30773.437500	-124.658089
30796.875000	-124.648178
30820.312500	-124.651855
30843.750000	-124.656158
30867.187500	-124.700577
30890.625000	-124.673737
30914.062500	-124.601830
30937.500000	-124.642792
30960.937500	-124.655128
30984.375000	-124.600975
31007.812500	-124.553810
31031.250000	-124.601189
31054.687500	-124.595627
31078.125000	-124.572151
31101.562500	-124.715752
31125.000000	-124.789566
31148.437500	-124.735992
31171.875000	-124.644188
31195.312500	-124.632858
31218.750000	-124.688011
31242.187500	-124.722763
31265.625000	-124.627434
31289.062500	-124.645454
31312.500000	-124.696274
31335.937500	-124.725693
31359.375000	-124.721756
31382.812500	-124.703384
31406.250000	-124.788864
31429.687500	-124.788101
31453.125000	-124.745461
31476.562500	-124.455742
31500.000000	-124.048607
31523.437500	-124.604149
31546.875000	-124.725342
31570.312500	-124.753242
31593.750000	-124.735489
31617.187500	-124.665245
31640.625000	-124.618439
31664.062500	-124.639297
31687.500000	-124.757607
31710.937500	-124.782700
31734.375000	-124.678032
31757.812500	-124.701347
31781.250000	-124.724640
31804.687500	-124.769310
31828.125000	-124.777504
31851.562500	-124.704849
31875.000000	-124.640694
31898.437500	-124.678520
31921.875000	-124.741684
31945.312500	-124.687523
31968.750000	-124.688103
31992.187500	-124.640282
32015.625000	-124.670135
32039.062500	-124.668640
32062.500000	-124.884697
32085.937500	-124.826988
32109.375000	-124.757202
32132.812500	-124.808258
32156.250000	-124.827675
32179.687500	-124.809242
32203.125000	-124.739525
32226.562500	-124.673233
32250.000000	-124.736015
32273.437500	-124.777382
32296.875000	-124.764488
32320.312500	-124.764046
32343.750000	-124.812157
32367.187500	-124.771278
32390.625000	-124.663971
32414.062500	-124.601387
32437.500000	-124.668640
32460.937500	-124.775040
32484.375000	-124.727081
32507.812500	-124.781342
32531.250000	-124.866287
32554.687500	-124.717812
32578.125000	-124.771767
32601.562500	-124.787666
32625.000000	-124.798561
32648.437500	-124.717941
32671.875000	-124.674919
32695.312500	-124.649300
32718.750000	-124.772942
32742.187500	-124.759903
32765.625000	-124.678932
32789.062500	-124.733795
32812.500000	-124.765549
32835.937500	-124.865189
32859.375000	-124.870308
32882.812500	-124.810410
32906.250000	-124.710648
32929.687500	-124.712845
32953.125000	-124.815125
32976.562500	-124.565971
33000.000000	-124.115509
33023.437500	-124.624207
33046.875000	-124.814514
33070.312500	-124.782608
33093.750000	-124.713142
33117.187500	-124.728210
33140.625000	-124.773453
33164.062500	-124.867920
33187.500000	-124.838303
33210.937500	-124.831589
33234.375000	-124.804199
33257.812500	-124.862160
33281.250000	-124.842354
33304.687500	-124.861206
33328.125000	-124.887863
33351.562500	-124.854385
33375.000000	-124.787445
33398.437500	-124.761986
33421.875000	-124.735306
33445.312500	-124.708534
33468.750000	-124.804848
33492.187500	-124.854706
33515.625000	-124.810051
33539.062500	-124.808495
33562.500000	-124.884026
33585.937500	-124.704491
33609.375000	-124.651291
33632.812500	-124.653206
33656.250000	-124.518433
33679.687500	-124.560402
33703.125000	-124.692574
33726.562500	-124.739006
33750.000000	-124.794357
33773.437500	-124.783813
33796.875000	-124.677795
33820.312500	-124.644173
33843.750000	-124.647743
33867.187500	-124.655838
33890.625000	-124.787094
33914.062500	-124.842285
33937.500000	-124.744278
33960.937500	-124.786964
33984.375000	-124.806870
34007.812500	-124.824837
34031.250000	-124.863762
34054.687500	-124.870636
34078.125000	-124.857811
34101.562500	-124.880478
34125.000000	-124.944496
34148.437500	-124.926819
34171.875000	-124.824196
34195.312500	-124.863770
34218.750000	-124.760773
34242.187500	-124.787025
34265.625000	-124.845108
34289.062500	-124.768204
34312.500000	-124.766190
34335.937500	-124.805794
34359.375000	-124.726006
34382.812500	-124.783829
34406.250000	-124.861145
34429.687500	-124.854500
34453.125000	-124.751663
34476.562500	-124.677406
34500.000000	-124.363609
34523.437500	-124.708031
34546.875000	-124.819481
34570.312500	-124.834534
34593.750000	-124.857788
34617.187500	-124.860184
34640.625000	-124.816727
34664.062500	-124.796349
34687.500000	-124.728058
34710.937500	-124.741982
34734.375000	-124.803192
34757.812500	-124.890114
34781.250000	-124.909843
34804.687500	-124.987366
34828.125000	-124.924507
34851.562500	-124.847031
34875.000000	-124.880196
34898.437500	-124.940536
34921.875000	-124.900063
34945.312500	-124.868607
34968.750000	-124.854332
34992.187500	-124.915718
35015.625000	-124.964943
35039.062500	-124.890366
35062.500000	-124.875183
35085.937500	-124.887184
35109.375000	-124.842674
35132.812500	-124.848999
35156.250000	-124.862000
35179.687500	-124.867737
35203.125000	-124.817474
35226.562500	-124.862732
35250.000000	-124.908409
35273.437500	-124.871735
35296.875000	-124.866310
35320.312500	-124.871559
35343.750000	-124.830185
35367.187500	-125.004234
35390.625000	-124.971664
35414.062500	-124.906837
35437.500000	-124.903610
35460.937500	-124.923950
35484.375000	-124.840027
35507.812500	-124.887184
35531.250000	-124.986099
35554.687500	-124.952415
35578.125000	-124.890488
35601.562500	-124.940918
35625.000000	-124.935684
35648.437500	-124.964645
35671.875000	-124.896790
35695.312500	-124.904778
35718.750000	-124.891197
35742.187500	-124.938927
35765.625000	-124.847969
35789.062500	-124.906548
35812.500000	-124.954750
35835.937500	-125.004021
35859.375000	-124.980949
35882.812500	-124.956802
35906.250000	-125.058228
35929.687500	-124.975822
35953.125000	-124.932289
35976.562500	-124.970184
36000.000000	-124.889961
36023.437500	-124.906128
36046.875000	-124.984413
36070.312500	-125.019447
36093.750000	-124.989471
36117.187500	-124.971931
36140.625000	-125.034470
36164.062500	-124.962471
36187.500000	-124.978958
36210.937500	-125.017860
36234.375000	-125.022743
36257.812500	-124.970741
36281.250000	-125.020477
36304.687500	-125.033463
36328.125000	-125.047630
36351.562500	-125.032440
36375.000000	-125.002060
36398.437500	-124.964806
36421.875000	-125.008270
36445.312500	-124.986801
36468.750000	-125.042961
36492.187500	-125.045845
36515.625000	-124.967720
36539.062500	-125.021629
36562.500000	-125.030838
36585.937500	-124.910156
36609.375000	-124.918327
36632.812500	-124.954811
36656.250000	-124.953186
36679.687500	-124.994904
36703.125000	-125.065147
36726.562500	-125.028183
36750.000000	-124.938423
36773.437500	-125.040527
36796.875000	-125.039879
36820.312500	-125.039429
36843.750000	-125.057236
36867.187500	-124.998505
36890.625000	-124.973152
36914.062500	-124.954796
36937.500000	-125.022026
36960.937500	-124.984703
36984.375000	-124.971695
37007.812500	-124.993698
37031.250000	-124.974846
37054.687500	-124.982620
37078.125000	-124.969955
37101.562500	-125.061485
37125.000000	-125.154724
37148.437500	-125.057899
37171.875000	-125.064697
37195.312500	-125.207367
37218.750000	-125.083847
37242.187500	-124.937271
37265.625000	-124.975311
37289.062500	-125.090401
37312.500000	-125.144318
37335.937500	-125.060127
37359.375000	-125.013100
37382.812500	-125.062874
37406.250000	-125.065933
37429.687500	-125.055412
37453.125000	-125.022385
37476.562500	-125.007973
37500.000000	-125.091682
37523.437500	-125.006310
37546.875000	-124.966049
37570.312500	-124.988060
37593.750000	-125.071838
37617.187500	-125.106277
37640.625000	-125.074707
37664.062500	-125.005081
37687.500000	-125.015846
37710.937500	-125.073296
37734.375000	-125.117569
37757.812500	-125.011810
37781.250000	-124.992783
37804.687500	-124.980270
37828.125000	-125.010406
37851.562500	-124.913567
37875.000000	-124.935890
37898.437500	-125.000534
37921.875000	-124.947578
37945.312500	-124.940239
37968.750000	-124.931137
37992.187500	-124.870758
38015.625000	-124.798058
38039.062500	-124.771774
38062.500000	-124.529678
38085.937500	-124.596741
38109.375000	-124.520393
38132.812500	-124.397469
38156.250000	-124.288544
38179.687500	-123.917198
38203.125000	-123.667397
38226.562500	-122.611305
38250.000000	-122.001106
38273.437500	-121.090775
38296.875000	-119.569107
38320.312500	-120.267883
38343.750000	-121.246819
38367.187500	-121.607697
38390.625000	-121.376022
38414.062500	-120.843124
38437.500000	-121.487862
38460.937500	-121.563004
38484.375000	-121.829002
38507.812500	-122.127602
38531.250000	-122.241379
38554.687500	-122.771851
38578.125000	-123.076248
38601.562500	-122.931366
38625.000000	-122.991020
38648.437500	-123.301819
38671.875000	-123.584595
38695.312500	-123.617599
38718.750000	-123.582504
38742.187500	-123.662636
38765.625000	-123.896484
38789.062500	-123.996391
38812.500000	-124.059738
38835.937500	-124.169449
38859.375000	-124.263123
38882.812500	-124.232796
38906.250000	-124.396240
38929.687500	-124.655190
38953.125000	-124.744194
38976.562500	-124.744247
39000.000000	-124.539398
39023.437500	-124.831917
39046.875000	-124.867752
39070.312500	-124.902832
39093.750000	-124.899406
39117.187500	-124.837288
39140.625000	-124.891518
39164.062500	-124.921371
39187.500000	-124.921799
39210.937500	-125.036705
39234.375000	-125.018715
39257.812500	-125.018311
39281.250000	-124.889130
39304.687500	-124.879959
39328.125000	-124.953423
39351.562500	-124.982986
39375.000000	-124.991524
39398.437500	-125.029503
39421.875000	-124.968414
39445.312500	-125.060692
39468.750000	-125.121170
39492.187500	-125.087891
39515.625000	-125.135094
39539.062500	-125.069252
39562.500000	-125.091690
39585.937500	-125.191368
39609.375000	-125.044518
39632.812500	-125.042961
39656.250000	-125.131546
39679.687500	-125.156738
39703.125000	-125.147346
39726.562500	-125.149895
39750.000000	-125.098228
39773.437500	-125.027756
39796.875000	-125.054581
39820.312500	-125.058990
39843.750000	-125.119423
39867.187500	-125.082344
39890.625000	-125.167160
39914.062500	-125.181862
39937.500000	-125.173302
39960.937500	-125.166756
39984.375000	-125.135109
40007.812500	-125.134178
40031.250000	-125.137482
40054.687500	-125.148674
40078.125000	-125.163910
40101.562500	-125.170860
40125.000000	-125.131416
40148.437500	-125.087914
40171.875000	-125.170990
40195.312500	-125.263580
40218.750000	-125.192932
40242.187500	-124.650826
40265.625000	-122.719170
40289.062500	-124.050598
40312.500000	-125.153587
40335.937500	-125.204933
40359.375000	-125.184853
40382.812500	-125.209923
40406.250000	-125.220535
40429.687500	-125.243683
40453.125000	-125.134209
40476.562500	-125.044502
40500.000000	-124.739204
40523.437500	-125.072563
40546.875000	-125.242790
40570.312500	-125.196747
40593.750000	-125.126945
40617.187500	-125.137177
40640.625000	-125.231926
40664.062500	-125.200623
40687.500000	-125.219490
40710.937500	-125.128105
40734.375000	-125.113205
40757.812500	-125.122505
40781.250000	-125.130371
40804.687500	-125.169540
40828.125000	-125.165825
40851.562500	-125.118355
40875.000000	-125.252396
40898.437500	-125.225128
40921.875000	-125.133041
40945.312500	-125.255127
40968.750000	-125.201790
40992.187500	-125.329575
41015.625000	-125.253860
41039.062500	-125.193970
41062.500000	-125.261406
41085.937500	-125.236992
41109.375000	-125.204361
41132.812500	-125.193947
41156.250000	-125.177902
41179.687500	-125.192566
41203.125000	-125.293678
41226.562500	-125.280281
41250.000000	-125.211601
41273.437500	-125.278160
41296.875000	-125.309471
41320.312500	-125.318825
41343.750000	-125.356720
41367.187500	-125.242035
41390.625000	-125.261490
41414.062500	-125.401909
41437.500000	-125.378006
41460.937500	-125.379768
41484.375000	-125.290199
41507.812500	-125.327919
41531.250000	-125.385521
41554.687500	-125.430695
41578.125000	-125.430763
41601.562500	-125.322731
41625.000000	-125.276848
41648.437500	-125.359352
41671.875000	-125.431023
41695.312500	-125.391594
41718.750000	-125.442665
41742.187500	-125.465668
41765.625000	-125.500298
41789.062500	-125.357033
41812.500000	-125.371063
41835.937500	-125.403442
41859.375000	-125.462997
41882.812500	-125.442856
41906.250000	-125.450294
41929.687500	-125.377014
41953.125000	-125.418610
41976.562500	-125.376106
42000.000000	-124.929169
42023.437500	-125.311768
42046.875000	-125.399040
42070.312500	-125.415962
42093.750000	-125.458939
42117.187500	-125.532982
42140.625000	-125.493347
42164.062500	-125.537399
42187.500000	-125.544022
42210.937500	-125.559319
42234.375000	-125.521446
42257.812500	-125.458214
42281.250000	-125.551582
42304.687500	-125.504135
42328.125000	-125.543510
42351.562500	-125.626198
42375.000000	-125.673195
42398.437500	-125.644943
42421.875000	-125.654282
42445.312500	-125.599045
42468.750000	-125.581139
42492.187500	-125.563004
42515.625000	-125.613564
42539.062500	-125.607635
42562.500000	-125.626152
42585.937500	-125.616577
42609.375000	-125.567696
42632.812500	-125.628395
42656.250000	-125.669296
42679.687500	-125.586288
42703.125000	-125.602509
42726.562500	-125.713913
42750.000000	-125.664162
42773.437500	-125.652954
42796.875000	-125.744576
42820.312500	-125.674538
42843.750000	-125.676163
42867.187500	-125.690857
42890.625000	-125.697968
42914.062500	-125.729469
42937.500000	-125.782967
42960.937500	-125.737610
42984.375000	-125.691025
43007.812500	-125.733452
43031.250000	-125.796181
43054.687500	-125.784554
43078.125000	-125.777458
43101.562500	-125.858147
43125.000000	-125.856331
43148.437500	-125.867798
43171.875000	-125.908272
43195.312500	-125.825233
43218.750000	-125.812073
43242.187500	-125.854668
43265.625000	-125.877060
43289.062500	-125.874359
43312.500000	-125.919296
43335.937500	-125.910805
43359.375000	-125.955734
43382.812500	-125.946777
43406.250000	-125.995811
43429.687500	-126.014992
43453.125000	-125.960800
43476.562500	-125.945580
43500.000000	-125.390312
43523.437500	-125.784340
43546.875000	-126.029510
43570.312500	-126.166252
43593.750000	-126.091644
43617.187500	-125.998283
43640.625000	-125.943222
43664.062500	-126.006119
43687.500000	-126.082970
43710.937500	-126.111099
43734.375000	-126.126526
43757.812500	-126.132118
43781.250000	-126.124336
43804.687500	-126.108597
43828.125000	-126.146294
43851.562500	-126.123970
43875.000000	-126.233269
43898.437500	-126.301979
43921.875000	-126.256760
43945.312500	-126.219002
43968.750000	-126.239258
43992.187500	-126.280045
44015.625000	-126.213364
44039.062500	-126.232239
44062.500000	-126.255684
44085.937500	-126.356117
44109.375000	-126.489014
44132.812500	-126.424355
44156.250000	-126.399475
44179.687500	-126.396080
44203.125000	-126.401794
44226.562500	-126.435165
44250.000000	-126.493515
44273.437500	-126.394768
44296.875000	-126.468590
44320.312500	-126.504898
44343.750000	-126.549103
44367.187500	-126.566208
44390.625000	-126.616241
44414.062500	-126.549522
44437.500000	-126.514687
44460.937500	-126.457634
44484.375000	-126.571533
44507.812500	-126.620506
44531.250000	-126.632698
44554.687500	-126.608719
44578.125000	-126.581352
44601.562500	-126.597351
44625.000000	-126.665367
44648.437500	-126.602081
44671.875000	-126.665298
44695.312500	-126.770424
44718.750000	-126.761887
44742.187500	-126.754669
44765.625000	-126.576050
44789.062500	-126.740898
44812.500000	-126.918999
44835.937500	-126.855637
44859.375000	-126.691109
44882.812500	-126.763466
44906.250000	-126.798866
44929.687500	-126.814056
44953.125000	-126.909531
44976.562500	-126.774048
45000.000000	-126.436340
45023.437500	-126.897087
45046.875000	-127.042458
45070.312500	-126.970116
45093.750000	-127.071983
45117.187500	-127.086075
45140.625000	-127.063896
45164.062500	-126.998146
45187.500000	-127.054802
45210.937500	-127.089043
45234.375000	-127.190056
45257.812500	-127.050446
45281.250000	-127.025894
45304.687500	-127.203171
45328.125000	-127.107529
45351.562500	-127.123230
45375.000000	-127.176048
45398.437500	-127.292511
45421.875000	-127.265846
45445.312500	-127.173012
45468.750000	-127.150085
45492.187500	-127.389214
45515.625000	-127.426262
45539.062500	-127.377441
45562.500000	-127.324699
45585.937500	-127.389755
45609.375000	-127.471443
45632.812500	-127.480484
45656.250000	-127.324463
45679.687500	-127.388855
45703.125000	-127.539085
45726.562500	-127.538353
45750.000000	-127.474686
45773.437500	-127.454697
45796.875000	-127.639023
45820.312500	-127.617035
45843.750000	-127.622284
45867.187500	-127.609795
45890.625000	-127.640747
45914.062500	-127.772812
45937.500000	-127.828033
45960.937500	-127.690926
45984.375000	-127.713333
46007.812500	-127.706474
46031.250000	-127.763283
46054.687500	-127.683533
46078.125000	-127.711189
46101.562500	-127.866119
46125.000000	-127.895538
46148.437500	-127.733719
46171.875000	-127.754425
46195.312500	-128.036728
46218.750000	-128.016327
46242.187500	-127.282341
46265.625000	-127.619133
46289.062500	-128.076553
46312.500000	-128.131119
46335.937500	-127.953186
46359.375000	-127.881241
46382.812500	-127.983612
46406.250000	-128.109131
46429.687500	-128.080597
46453.125000	-128.130753
46476.562500	-128.047745
46500.000000	-127.809044
46523.437500	-128.091736
46546.875000	-128.201645
46570.312500	-128.201477
46593.750000	-128.307419
46617.187500	-128.265503
46640.625000	-128.316040
46664.062500	-128.278442
46687.500000	-128.321930
46710.937500	-128.148605
46734.375000	-128.185944
46757.812500	-128.444778
46781.250000	-128.377060
46804.687500	-127.230698
46828.125000	-126.988792
46851.562500	-128.388199
46875.000000	-128.441635
46898.437500	-128.323471
46921.875000	-128.186081
46945.312500	-128.531540
46968.750000	-128.498199
46992.187500	-128.505173
47015.625000	-128.510193
47039.062500	-128.621582
47062.500000	-128.590698
47085.937500	-128.625122
47109.375000	-128.653488
47132.812500	-128.536346
47156.250000	-128.600204
47179.687500	-128.686798
47203.125000	-128.734039
47226.562500	-128.592392
47250.000000	-128.730804
47273.437500	-128.785416
47296.875000	-128.708557
47320.312500	-128.681702
47343.750000	-128.653305
47367.187500	-128.752106
47390.625000	-128.840042
47414.062500	-128.958054
47437.500000	-128.899887
47460.937500	-128.842606
47484.375000	-128.787064
47507.812500	-128.800735
47531.250000	-128.858948
47554.687500	-128.913040
47578.125000	-128.868851
47601.562500	-128.880005
47625.000000	-128.904617
47648.437500	-128.775467
47671.875000	-128.841507
47695.312500	-128.903549
47718.750000	-128.892746
47742.187500	-128.897461
47765.625000	-128.960083
47789.062500	-128.882355
47812.500000	-128.940308
47835.937500	-128.935349
47859.375000	-128.874512
47882.812500	-128.902863
47906.250000	-128.921127
47929.687500	-128.896805
47953.125000	-128.887360
47976.562500	-128.870224
