주파수 (Hz)	레벨 (dB)
23.437500	-89.035217
46.875000	-75.136482
70.312500	-60.573376
93.750000	-51.637115
117.187500	-50.402222
140.625000	-49.781868
164.062500	-50.131260
187.500000	-46.835644
210.937500	-45.660107
234.375000	-47.501472
257.812500	-45.103817
281.250000	-45.049500
304.687500	-43.952599
328.125000	-44.931412
351.562500	-44.815544
375.000000	-46.751072
398.437500	-45.633926
421.875000	-47.260227
445.312500	-46.003448
468.750000	-43.291580
492.187500	-47.621044
515.625000	-45.080978
539.062500	-42.651985
562.500000	-41.746578
585.937500	-46.028671
609.375000	-41.275089
632.812500	-39.601322
656.250000	-48.280025
679.687500	-45.766636
703.125000	-41.164921
726.562500	-45.578117
750.000000	-48.376572
773.437500	-46.935024
796.875000	-46.946686
820.312500	-42.390419
843.750000	-41.542107
867.187500	-51.651215
890.625000	-55.620079
914.062500	-55.022339
937.500000	-52.339603
960.937500	-55.088284
984.375000	-51.434753
1007.812500	-53.135456
1031.250000	-42.610916
1054.687500	-38.771957
1078.125000	-45.725658
1101.562500	-53.007442
1125.000000	-55.511906
1148.437500	-59.245354
1171.875000	-52.932911
1195.312500	-53.562862
1218.750000	-55.531670
1242.187500	-48.006683
1265.625000	-49.681145
1289.062500	-57.670254
1312.500000	-56.630577
1335.937500	-57.196568
1359.375000	-56.885681
1382.812500	-49.606041
1406.250000	-46.125072
1429.687500	-52.091965
1453.125000	-58.408173
1476.562500	-54.046329
1500.000000	-54.171925
1523.437500	-59.683132
1546.875000	-58.326225
1570.312500	-51.601086
1593.750000	-52.369366
1617.187500	-60.127796
1640.625000	-53.409203
1664.062500	-45.270615
1687.500000	-47.081181
1710.937500	-58.885303
1734.375000	-63.182285
1757.812500	-61.209602
1781.250000	-60.550018
1804.687500	-66.168297
1828.125000	-66.179535
1851.562500	-60.494526
1875.000000	-54.429192
1898.437500	-56.711723
1921.875000	-66.205788
1945.312500	-68.856567
1968.750000	-65.889359
1992.187500	-63.565647
2015.625000	-67.326668
2039.062500	-71.649811
2062.500000	-69.326286
2085.937500	-61.752125
2109.375000	-58.239998
2132.812500	-61.673038
2156.250000	-68.511246
2179.687500	-66.835052
2203.125000	-66.805794
2226.562500	-66.350273
2250.000000	-66.703896
2273.437500	-70.165291
2296.875000	-70.268440
2320.312500	-69.278214
2343.750000	-67.023605
2367.187500	-64.416588
2390.625000	-65.602249
2414.062500	-71.551292
2437.500000	-73.150688
2460.937500	-69.083206
2484.375000	-65.862236
2507.812500	-62.170647
2531.250000	-61.760918
2554.687500	-68.332672
2578.125000	-72.745461
2601.562500	-76.056450
2625.000000	-77.020607
2648.437500	-71.688309
2671.875000	-69.969719
2695.312500	-73.577484
2718.750000	-76.559044
2742.187500	-75.592789
2765.625000	-72.191391
2789.062500	-69.836555
2812.500000	-66.798904
2835.937500	-64.298134
2859.375000	-67.968834
2882.812500	-73.805115
2906.250000	-73.070396
2929.687500	-72.722847
2953.125000	-72.643051
2976.562500	-72.825439
3000.000000	-74.253372
3023.437500	-74.963081
3046.875000	-75.628006
3070.312500	-78.423431
3093.750000	-73.947098
3117.187500	-75.758598
3140.625000	-72.796272
3164.062500	-65.453056
3187.500000	-65.477654
3210.937500	-70.734398
3234.375000	-77.254654
3257.812500	-79.551414
3281.250000	-77.247475
3304.687500	-79.121925
3328.125000	-72.872787
3351.562500	-70.961273
3375.000000	-69.038994
3398.437500	-71.219131
3421.875000	-76.742706
3445.312500	-80.661934
3468.750000	-81.385201
3492.187500	-79.747696
3515.625000	-79.453545
3539.062500	-77.948647
3562.500000	-75.389404
3585.937500	-73.027466
3609.375000	-73.164291
3632.812500	-75.524818
3656.250000	-81.398415
3679.687500	-79.907158
3703.125000	-76.082306
3726.562500	-78.086113
3750.000000	-72.664955
3773.437500	-70.369629
3796.875000	-72.281075
3820.312500	-71.922134
3843.750000	-72.566574
3867.187500	-76.216141
3890.625000	-82.847389
3914.062500	-85.075859
3937.500000	-83.876984
3960.937500	-81.629509
3984.375000	-76.044601
4007.812500	-74.089684
4031.250000	-77.377998
4054.687500	-82.890533
4078.125000	-83.171211
4101.562500	-83.490646
4125.000000	-85.982796
4148.437500	-85.249336
4171.875000	-85.272606
4195.312500	-83.707603
4218.750000	-80.921875
4242.187500	-74.841545
4265.625000	-73.121788
4289.062500	-76.259720
4312.500000	-76.866280
4335.937500	-78.831848
4359.375000	-82.809570
4382.812500	-85.955711
4406.250000	-86.409279
4429.687500	-86.326912
4453.125000	-85.391876
4476.562500	-77.741898
4500.000000	-74.353966
4523.437500	-76.526085
4546.875000	-78.544594
4570.312500	-80.399269
4593.750000	-79.162315
4617.187500	-83.762474
4640.625000	-89.479927
4664.062500	-90.952187
4687.500000	-88.797516
4710.937500	-89.538116
4734.375000	-84.373840
4757.812500	-82.688438
4781.250000	-79.646545
4804.687500	-77.629967
4828.125000	-80.689827
4851.562500	-83.296516
4875.000000	-88.154930
4898.437500	-90.118767
4921.875000	-89.241837
4945.312500	-88.900352
4968.750000	-90.183983
4992.187500	-90.261047
5015.625000	-87.800476
5039.062500	-85.512138
5062.500000	-82.993683
5085.937500	-82.583031
5109.375000	-80.300453
5132.812500	-78.950562
5156.250000	-78.798515
5179.687500	-79.907455
5203.125000	-86.305664
5226.562500	-90.492195
5250.000000	-92.728043
5273.437500	-95.148865
5296.875000	-97.787025
5320.312500	-96.918320
5343.750000	-94.943878
5367.187500	-93.581871
5390.625000	-88.687088
5414.062500	-84.569992
5437.500000	-86.118103
5460.937500	-92.159637
5484.375000	-89.046898
5507.812500	-88.610329
5531.250000	-93.058357
5554.687500	-92.975853
5578.125000	-96.225792
5601.562500	-96.897476
5625.000000	-97.861107
5648.437500	-98.113373
5671.875000	-97.058662
5695.312500	-93.758041
5718.750000	-89.944305
5742.187500	-87.197678
5765.625000	-85.861084
5789.062500	-85.617653
5812.500000	-83.510086
5835.937500	-80.819199
5859.375000	-84.587852
5882.812500	-92.317215
5906.250000	-92.757423
5929.687500	-95.598076
5953.125000	-95.714340
5976.562500	-96.173531
6000.000000	-97.804344
6023.437500	-98.851578
6046.875000	-96.873161
6070.312500	-90.315735
6093.750000	-86.370186
6117.187500	-86.641106
6140.625000	-88.904091
6164.062500	-87.024651
6187.500000	-84.452682
6210.937500	-86.777092
6234.375000	-93.083641
6257.812500	-97.178978
6281.250000	-97.035362
6304.687500	-97.772911
6328.125000	-100.210136
6351.562500	-97.944405
6375.000000	-96.174286
6398.437500	-97.747925
6421.875000	-100.106354
6445.312500	-98.920158
6468.750000	-92.069588
6492.187500	-87.080879
6515.625000	-85.702759
6539.062500	-87.587120
6562.500000	-88.095848
6585.937500	-85.903320
6609.375000	-88.446594
6632.812500	-94.337624
6656.250000	-97.090622
6679.687500	-94.337456
6703.125000	-95.588364
6726.562500	-96.571701
6750.000000	-94.859932
6773.437500	-95.084877
6796.875000	-97.454178
6820.312500	-99.236084
6843.750000	-99.510635
6867.187500	-99.091743
6890.625000	-94.313866
6914.062500	-92.572212
6937.500000	-89.743958
6960.937500	-88.874001
6984.375000	-86.785141
7007.812500	-85.275642
7031.250000	-88.128174
7054.687500	-94.260666
7078.125000	-97.529709
7101.562500	-98.211067
7125.000000	-98.113228
7148.437500	-97.835930
7171.875000	-99.496162
7195.312500	-96.906494
7218.750000	-97.253204
7242.187500	-99.096954
7265.625000	-97.108505
7289.062500	-95.956573
7312.500000	-98.327660
7335.937500	-98.888527
7359.375000	-99.096420
7382.812500	-93.498070
7406.250000	-91.643181
7429.687500	-95.305649
7453.125000	-92.991188
7476.562500	-88.263374
7500.000000	-88.074379
7523.437500	-92.347878
7546.875000	-96.526329
7570.312500	-94.640869
7593.750000	-99.198746
7617.187500	-101.372040
7640.625000	-101.725098
7664.062500	-101.873123
7687.500000	-102.482246
7710.937500	-100.986748
7734.375000	-99.367676
7757.812500	-97.445015
7781.250000	-95.344299
7804.687500	-92.713852
7828.125000	-93.484016
7851.562500	-93.543503
7875.000000	-89.072395
7898.437500	-90.905426
7921.875000	-94.701675
7945.312500	-94.218575
7968.750000	-91.528030
7992.187500	-91.104004
8015.625000	-93.035042
8039.062500	-97.913948
8062.500000	-98.867493
8085.937500	-100.442154
8109.375000	-102.514290
8132.812500	-103.910568
8156.250000	-104.036140
8179.687500	-104.508911
8203.125000	-104.589790
8226.562500	-103.490288
8250.000000	-99.426552
8273.437500	-91.415741
8296.875000	-89.215195
8320.312500	-91.954041
8343.750000	-97.360901
8367.187500	-102.877563
8390.625000	-105.240898
8414.062500	-102.990158
8437.500000	-100.073616
8460.937500	-99.109749
8484.375000	-100.114220
8507.812500	-103.690079
8531.250000	-106.567162
8554.687500	-105.610680
8578.125000	-104.899307
8601.562500	-104.784698
8625.000000	-105.687767
8648.437500	-106.739182
8671.875000	-107.363968
8695.312500	-106.022324
8718.750000	-105.680573
8742.187500	-107.311790
8765.625000	-107.069168
8789.062500	-103.512138
8812.500000	-99.732323
8835.937500	-99.545547
8859.375000	-95.887421
8882.812500	-92.548340
8906.250000	-94.097137
8929.687500	-99.243484
8953.125000	-96.996758
8976.562500	-100.520615
9000.000000	-99.474152
9023.437500	-96.217453
9046.875000	-97.079132
9070.312500	-99.367119
9093.750000	-96.192230
9117.187500	-93.193138
9140.625000	-96.348251
9164.062500	-101.299126
9187.500000	-105.580360
9210.937500	-107.233574
9234.375000	-107.568756
9257.812500	-107.775520
9281.250000	-106.534378
9304.687500	-105.233963
9328.125000	-106.935982
9351.562500	-108.457062
9375.000000	-105.655281
9398.437500	-102.398376
9421.875000	-102.862297
9445.312500	-106.379372
9468.750000	-104.555206
9492.187500	-102.662949
9515.625000	-104.019241
9539.062500	-106.841660
9562.500000	-108.596619
9585.937500	-107.597229
9609.375000	-101.668655
9632.812500	-99.330338
9656.250000	-97.037910
9679.687500	-100.345390
9703.125000	-101.312943
9726.562500	-102.810417
9750.000000	-105.082535
9773.437500	-106.942192
9796.875000	-108.061302
9820.312500	-109.548340
9843.750000	-109.788933
9867.187500	-109.805817
9890.625000	-110.566467
9914.062500	-110.842255
9937.500000	-109.153160
9960.937500	-107.674637
9984.375000	-107.691399
10007.812500	-106.724510
10031.250000	-104.362030
10054.687500	-102.293167
10078.125000	-99.811623
10101.562500	-102.309685
10125.000000	-106.907997
10148.437500	-106.198936
10171.875000	-104.677994
10195.312500	-105.925179
10218.750000	-106.365028
10242.187500	-105.531410
10265.625000	-102.624077
10289.062500	-102.669342
10312.500000	-106.498238
10335.937500	-109.277489
10359.375000	-109.481323
10382.812500	-105.229980
10406.250000	-105.988808
10429.687500	-107.100784
10453.125000	-108.131493
10476.562500	-111.708748
10500.000000	-110.533669
10523.437500	-111.564209
10546.875000	-112.406906
10570.312500	-114.149284
10593.750000	-114.231560
10617.187500	-113.431778
10640.625000	-113.655899
10664.062500	-113.970398
10687.500000	-114.571602
10710.937500	-114.519791
10734.375000	-113.863159
10757.812500	-112.803032
10781.250000	-111.314209
10804.687500	-111.278938
10828.125000	-108.069733
10851.562500	-110.188362
10875.000000	-110.813606
10898.437500	-110.621498
10921.875000	-106.945938
10945.312500	-103.668083
10968.750000	-102.830284
10992.187500	-107.029778
11015.625000	-111.832306
11039.062500	-106.856903
11062.500000	-104.746979
11085.937500	-105.342728
11109.375000	-106.329315
11132.812500	-111.116196
11156.250000	-111.971985
11179.687500	-113.143051
11203.125000	-112.264778
11226.562500	-111.143982
11250.000000	-112.172195
11273.437500	-113.258759
11296.875000	-113.223221
11320.312500	-113.264053
11343.750000	-113.249870
11367.187500	-110.034927
11390.625000	-110.014221
11414.062500	-110.865334
11437.500000	-110.407402
11460.937500	-112.428970
11484.375000	-113.116951
11507.812500	-113.393448
11531.250000	-111.941483
11554.687500	-111.130081
11578.125000	-111.016151
11601.562500	-112.342949
11625.000000	-112.954697
11648.437500	-112.961700
11671.875000	-112.480194
11695.312500	-111.065163
11718.750000	-111.719002
11742.187500	-113.548920
11765.625000	-113.215729
11789.062500	-111.808907
11812.500000	-110.670395
11835.937500	-112.150749
11859.375000	-113.457565
11882.812500	-112.317696
11906.250000	-111.600540
11929.687500	-113.378059
11953.125000	-115.271065
11976.562500	-114.574043
12000.000000	-112.627670
12023.437500	-112.613449
12046.875000	-112.315857
12070.312500	-113.801872
12093.750000	-112.255295
12117.187500	-108.865952
12140.625000	-108.580238
12164.062500	-110.325844
12187.500000	-110.666939
12210.937500	-112.393402
12234.375000	-113.805786
12257.812500	-113.711578
12281.250000	-113.753647
12304.687500	-113.044159
12328.125000	-112.692085
12351.562500	-112.696335
12375.000000	-113.507828
12398.437500	-115.025986
12421.875000	-112.847336
12445.312500	-107.744324
12468.750000	-102.501923
12492.187500	-103.253830
12515.625000	-105.064461
12539.062500	-107.627983
12562.500000	-111.452629
12585.937500	-111.826965
12609.375000	-108.528946
12632.812500	-106.415901
12656.250000	-107.302216
12679.687500	-108.247375
12703.125000	-112.308052
12726.562500	-111.144249
12750.000000	-109.942070
12773.437500	-110.391434
12796.875000	-111.334877
12820.312500	-111.551018
12843.750000	-110.357643
12867.187500	-111.784416
12890.625000	-114.116730
12914.062500	-115.404099
12937.500000	-116.002327
12960.937500	-116.450172
12984.375000	-116.730522
13007.812500	-115.828224
13031.250000	-115.294731
13054.687500	-115.353439
13078.125000	-115.696014
13101.562500	-114.387238
13125.000000	-106.162361
13148.437500	-103.299416
13171.875000	-107.111778
13195.312500	-111.423721
13218.750000	-114.278465
13242.187500	-113.194221
13265.625000	-111.988121
13289.062500	-114.310318
13312.500000	-116.104706
13335.937500	-116.306900
13359.375000	-116.385574
13382.812500	-116.372101
13406.250000	-115.380989
13429.687500	-115.134163
13453.125000	-114.671928
13476.562500	-112.966423
13500.000000	-112.450249
13523.437500	-112.134377
13546.875000	-114.181160
13570.312500	-114.868904
13593.750000	-114.336586
13617.187500	-114.711090
13640.625000	-115.517715
13664.062500	-115.523506
13687.500000	-116.809761
13710.937500	-117.520226
13734.375000	-117.864258
13757.812500	-117.963112
13781.250000	-118.136787
13804.687500	-118.187401
13828.125000	-117.745773
13851.562500	-117.306351
13875.000000	-116.482910
13898.437500	-113.126801
13921.875000	-112.541153
13945.312500	-115.890694
13968.750000	-117.010887
13992.187500	-116.677048
14015.625000	-116.266380
14039.062500	-116.329262
14062.500000	-115.965477
14085.937500	-115.060959
14109.375000	-113.562759
14132.812500	-114.561638
14156.250000	-114.968971
14179.687500	-114.247200
14203.125000	-115.354927
14226.562500	-117.119331
14250.000000	-117.165710
14273.437500	-116.395302
14296.875000	-116.063065
14320.312500	-116.693726
14343.750000	-117.140045
14367.187500	-117.669502
14390.625000	-117.665627
14414.062500	-116.610336
14437.500000	-114.380310
14460.937500	-115.591560
14484.375000	-117.311417
14507.812500	-116.730873
14531.250000	-118.139137
14554.687500	-118.555954
14578.125000	-119.273239
14601.562500	-119.701523
14625.000000	-119.700111
14648.437500	-118.600578
14671.875000	-117.219101
14695.312500	-117.486198
14718.750000	-118.464645
14742.187500	-118.629890
14765.625000	-118.998444
14789.062500	-119.452400
14812.500000	-118.666611
14835.937500	-118.077499
14859.375000	-117.453957
14882.812500	-118.918388
14906.250000	-119.807602
14929.687500	-119.533806
14953.125000	-119.895958
14976.562500	-119.485283
15000.000000	-118.257095
15023.437500	-118.946442
15046.875000	-119.504845
15070.312500	-117.572609
15093.750000	-116.738800
15117.187500	-118.520737
15140.625000	-119.747749
15164.062500	-120.317886
15187.500000	-120.360512
15210.937500	-120.229187
15234.375000	-119.481224
15257.812500	-117.883141
15281.250000	-115.866013
15304.687500	-116.066322
15328.125000	-119.190636
15351.562500	-120.527367
15375.000000	-120.122070
15398.437500	-118.860924
15421.875000	-119.546379
15445.312500	-117.935410
15468.750000	-114.806870
15492.187500	-115.654617
15515.625000	-118.124458
15539.062500	-118.773918
15562.500000	-118.978836
15585.937500	-118.731216
15609.375000	-119.541756
15632.812500	-120.516594
15656.250000	-119.282158
15679.687500	-118.482483
15703.125000	-118.046974
15726.562500	-118.178085
15750.000000	-119.228073
15773.437500	-119.966331
15796.875000	-120.128693
15820.312500	-118.903259
15843.750000	-118.506638
15867.187500	-119.906067
15890.625000	-120.432625
15914.062500	-119.638588
15937.500000	-118.650986
15960.937500	-118.833939
15984.375000	-120.395798
16007.812500	-120.731522
16031.250000	-120.471573
16054.687500	-120.632095
16078.125000	-120.727615
16101.562500	-120.426094
16125.000000	-120.298744
16148.437500	-120.975067
16171.875000	-121.366325
16195.312500	-120.783279
16218.750000	-120.050743
16242.187500	-120.188126
16265.625000	-120.754967
16289.062500	-120.711830
16312.500000	-120.572411
16335.937500	-121.386734
16359.375000	-121.869942
16382.812500	-121.561905
16406.250000	-121.442825
16429.687500	-121.423325
16453.125000	-121.568825
16476.562500	-121.562546
16500.000000	-120.670418
16523.437500	-121.447472
16546.875000	-121.742668
16570.312500	-121.726105
16593.750000	-121.891434
16617.187500	-122.085823
16640.625000	-122.124107
16664.062500	-122.281929
16687.500000	-122.211311
16710.937500	-122.085342
16734.375000	-122.109268
16757.812500	-121.836197
16781.250000	-121.333626
16804.687500	-120.940575
16828.125000	-120.096909
16851.562500	-119.086266
16875.000000	-118.028198
16898.437500	-118.010689
16921.875000	-119.334389
16945.312500	-119.484238
16968.750000	-118.107765
16992.187500	-119.299713
17015.625000	-119.650475
17039.062500	-120.410202
17062.500000	-121.049522
17085.937500	-122.013680
17109.375000	-122.429199
17132.812500	-122.460808
17156.250000	-122.329819
17179.687500	-121.988274
17203.125000	-122.036224
17226.562500	-122.223976
17250.000000	-122.278206
17273.437500	-122.394867
17296.875000	-122.067169
17320.312500	-121.853973
17343.750000	-121.970322
17367.187500	-122.090439
17390.625000	-122.594475
17414.062500	-122.639008
17437.500000	-122.457260
17460.937500	-122.558701
17484.375000	-122.514908
17507.812500	-122.593010
17531.250000	-122.532219
17554.687500	-122.168037
17578.125000	-121.640648
17601.562500	-121.728958
17625.000000	-122.091705
17648.437500	-122.326630
17671.875000	-122.246025
17695.312500	-122.505447
17718.750000	-122.630806
17742.187500	-122.514908
17765.625000	-122.605286
17789.062500	-122.647125
17812.500000	-122.851524
17835.937500	-122.893684
17859.375000	-122.747818
17882.812500	-121.985092
17906.250000	-121.146629
17929.687500	-121.534996
17953.125000	-122.451912
17976.562500	-122.286682
18000.000000	-120.800644
18023.437500	-121.661011
18046.875000	-121.648430
18070.312500	-121.745674
18093.750000	-122.773354
18117.187500	-122.856117
18140.625000	-122.938858
18164.062500	-122.904884
18187.500000	-122.668144
18210.937500	-122.393410
18234.375000	-122.693260
18257.812500	-122.982346
18281.250000	-123.065895
18304.687500	-123.058357
18328.125000	-122.986290
18351.562500	-122.990181
18375.000000	-122.955963
18398.437500	-122.916504
18421.875000	-122.927849
18445.312500	-122.907455
18468.750000	-122.842552
18492.187500	-122.851891
18515.625000	-122.861526
18539.062500	-122.787422
18562.500000	-122.787109
18585.937500	-122.970337
18609.375000	-123.071510
18632.812500	-123.187935
18656.250000	-123.165604
18679.687500	-122.943184
18703.125000	-122.689926
18726.562500	-122.553505
18750.000000	-122.683517
18773.437500	-122.447273
18796.875000	-122.172462
18820.312500	-122.246170
18843.750000	-122.275894
18867.187500	-122.157700
18890.625000	-122.014107
18914.062500	-121.913048
18937.500000	-121.961540
18960.937500	-122.001579
18984.375000	-121.606499
19007.812500	-120.993858
19031.250000	-120.246185
19054.687500	-119.057869
19078.125000	-116.894905
19101.562500	-113.997421
19125.000000	-111.048668
19148.437500	-109.279755
19171.875000	-107.683731
19195.312500	-106.337387
19218.750000	-107.122757
19242.187500	-109.268143
19265.625000	-109.910110
19289.062500	-110.700981
19312.500000	-110.925270
19335.937500	-111.348160
19359.375000	-112.563889
19382.812500	-113.482941
19406.250000	-114.545746
19429.687500	-115.973495
19453.125000	-117.183678
19476.562500	-118.074776
19500.000000	-118.366676
19523.437500	-119.564049
19546.875000	-120.312981
19570.312500	-120.439758
19593.750000	-120.274696
19617.187500	-120.058586
19640.625000	-120.114120
19664.062500	-120.486397
19687.500000	-120.695190
19710.937500	-120.648949
19734.375000	-120.856163
19757.812500	-121.178055
19781.250000	-121.223511
19804.687500	-121.261917
19828.125000	-121.716476
19851.562500	-122.320801
19875.000000	-122.545372
19898.437500	-122.503380
19921.875000	-122.680794
19945.312500	-122.796440
19968.750000	-122.828918
19992.187500	-122.658051
20015.625000	-122.510941
20039.062500	-122.482857
20062.500000	-122.339745
20085.937500	-122.136353
20109.375000	-119.841812
20132.812500	-115.758842
20156.250000	-118.970970
20179.687500	-121.650505
20203.125000	-121.591736
20226.562500	-121.608902
20250.000000	-121.824394
20273.437500	-121.846260
20296.875000	-121.690361
20320.312500	-121.616623
20343.750000	-121.822868
20367.187500	-121.916679
20390.625000	-122.081894
20414.062500	-122.114067
20437.500000	-122.089020
20460.937500	-122.181961
20484.375000	-122.362717
20507.812500	-122.388466
20531.250000	-122.406601
20554.687500	-122.503517
20578.125000	-122.607018
20601.562500	-122.637459
20625.000000	-122.771385
20648.437500	-122.894547
20671.875000	-122.938087
20695.312500	-123.034294
20718.750000	-123.087845
20742.187500	-123.129990
20765.625000	-123.229385
20789.062500	-123.300957
20812.500000	-123.344795
20835.937500	-123.440491
20859.375000	-123.389900
20882.812500	-123.499588
20906.250000	-123.502022
20929.687500	-123.429642
20953.125000	-123.392006
20976.562500	-122.918892
21000.000000	-121.899124
21023.437500	-122.646797
21046.875000	-122.928185
21070.312500	-123.008308
21093.750000	-123.134590
21117.187500	-123.037666
21140.625000	-123.042961
21164.062500	-123.326469
21187.500000	-123.452469
21210.937500	-123.493378
21234.375000	-123.600723
21257.812500	-123.562263
21281.250000	-123.536629
21304.687500	-123.665100
21328.125000	-123.684067
21351.562500	-123.599693
21375.000000	-123.610191
21398.437500	-123.617035
21421.875000	-123.609863
21445.312500	-123.587975
21468.750000	-123.485107
21492.187500	-123.631889
21515.625000	-123.686897
21539.062500	-123.589363
21562.500000	-123.478806
21585.937500	-123.609650
21609.375000	-123.609375
21632.812500	-123.635658
21656.250000	-123.525017
21679.687500	-123.516624
21703.125000	-123.430656
21726.562500	-123.499847
21750.000000	-123.428978
21773.437500	-123.432587
21796.875000	-123.412537
21820.312500	-123.558113
21843.750000	-123.640030
21867.187500	-123.640320
21890.625000	-123.589470
21914.062500	-123.565857
21937.500000	-123.562698
21960.937500	-123.565826
21984.375000	-123.515564
22007.812500	-123.437302
22031.250000	-123.467201
22054.687500	-123.442604
22078.125000	-123.367035
22101.562500	-123.144577
22125.000000	-122.821617
22148.437500	-122.851303
22171.875000	-122.852829
22195.312500	-122.503067
22218.750000	-122.136665
22242.187500	-122.215408
22265.625000	-122.427788
22289.062500	-122.473984
22312.500000	-122.362663
22335.937500	-122.278221
22359.375000	-122.389427
22382.812500	-122.579659
22406.250000	-122.600380
22429.687500	-122.373367
22453.125000	-122.519760
22476.562500	-122.628906
22500.000000	-122.211449
22523.437500	-122.560852
22546.875000	-122.556335
22570.312500	-122.652046
22593.750000	-122.816711
22617.187500	-122.647102
22640.625000	-122.471107
22664.062500	-122.384178
22687.500000	-122.294502
22710.937500	-122.256226
22734.375000	-122.054245
22757.812500	-122.004677
22781.250000	-122.012505
22804.687500	-121.989594
22828.125000	-121.888618
22851.562500	-121.885506
22875.000000	-122.154823
22898.437500	-122.302116
22921.875000	-122.425262
22945.312500	-122.675209
22968.750000	-122.833191
22992.187500	-122.916588
23015.625000	-122.971657
23039.062500	-123.099312
23062.500000	-123.244781
23085.937500	-123.338867
23109.375000	-123.390305
23132.812500	-123.294792
23156.250000	-123.277473
23179.687500	-123.373756
23203.125000	-123.350998
23226.562500	-123.305565
23250.000000	-123.105812
23273.437500	-123.245193
23296.875000	-123.346367
23320.312500	-123.312050
23343.750000	-123.255333
23367.187500	-123.327728
23390.625000	-123.368271
23414.062500	-123.323669
23437.500000	-123.387672
23460.937500	-123.453773
23484.375000	-123.436562
23507.812500	-123.503609
23531.250000	-123.560783
23554.687500	-123.430939
23578.125000	-123.559868
23601.562500	-123.722191
23625.000000	-123.743393
23648.437500	-123.752144
23671.875000	-123.755829
23695.312500	-123.816078
23718.750000	-123.829338
23742.187500	-123.862549
23765.625000	-123.910683
23789.062500	-123.969849
23812.500000	-123.952164
23835.937500	-123.882591
23859.375000	-123.914932
23882.812500	-124.003136
23906.250000	-124.033585
23929.687500	-124.015640
23953.125000	-124.117798
23976.562500	-124.010201
24000.000000	-123.671234
24023.437500	-123.918915
24046.875000	-124.042961
24070.312500	-124.047791
24093.750000	-124.087196
24117.187500	-124.061348
24140.625000	-124.132942
24164.062500	-124.187988
24187.500000	-124.123268
24210.937500	-124.079117
24234.375000	-124.125847
24257.812500	-124.117668
24281.250000	-124.109200
24304.687500	-124.116951
24328.125000	-124.179024
24351.562500	-124.156113
24375.000000	-124.224907
24398.437500	-124.197807
24421.875000	-124.199097
24445.312500	-124.199135
24468.750000	-124.167938
24492.187500	-124.215042
24515.625000	-124.267426
24539.062500	-124.241745
24562.500000	-124.211121
24585.937500	-124.166595
24609.375000	-124.054085
24632.812500	-124.068703
24656.250000	-124.169220
24679.687500	-124.131119
24703.125000	-124.166428
24726.562500	-124.245834
24750.000000	-124.213211
24773.437500	-124.167442
24796.875000	-124.133522
24820.312500	-124.125900
24843.750000	-124.154747
24867.187500	-124.192917
24890.625000	-124.191833
24914.062500	-124.138184
24937.500000	-124.139450
24960.937500	-124.169762
24984.375000	-124.199165
25007.812500	-124.208900
25031.250000	-124.257278
25054.687500	-124.235420
25078.125000	-124.192085
25101.562500	-124.214821
25125.000000	-124.184464
25148.437500	-124.281342
25171.875000	-124.167885
25195.312500	-124.028732
25218.750000	-123.955971
25242.187500	-123.771873
25265.625000	-123.683189
25289.062500	-123.848328
25312.500000	-124.042007
25335.937500	-124.074799
25359.375000	-123.979019
25382.812500	-123.971931
25406.250000	-124.102531
25429.687500	-124.221664
25453.125000	-124.193581
25476.562500	-124.122414
25500.000000	-123.911469
25523.437500	-124.164375
25546.875000	-124.246216
25570.312500	-124.212761
25593.750000	-124.299950
25617.187500	-124.289429
25640.625000	-124.206291
25664.062500	-124.280685
25687.500000	-124.285080
25710.937500	-124.355888
25734.375000	-124.302681
25757.812500	-124.316238
25781.250000	-124.295868
25804.687500	-124.277336
25828.125000	-124.316101
25851.562500	-124.370071
25875.000000	-124.339775
25898.437500	-124.235214
25921.875000	-124.308456
25945.312500	-124.347878
25968.750000	-124.350151
25992.187500	-124.291527
26015.625000	-124.257439
26039.062500	-124.365868
26062.500000	-124.412239
26085.937500	-124.296974
26109.375000	-124.335854
26132.812500	-124.331429
26156.250000	-124.248108
26179.687500	-124.360023
26203.125000	-124.424156
26226.562500	-124.298149
26250.000000	-124.366386
26273.437500	-124.307831
26296.875000	-124.249413
26320.312500	-124.281235
26343.750000	-124.242569
26367.187500	-124.320518
26390.625000	-124.345840
26414.062500	-124.384392
26437.500000	-124.397621
26460.937500	-124.347923
26484.375000	-124.327263
26507.812500	-124.369301
26531.250000	-124.338135
26554.687500	-124.338737
26578.125000	-124.445023
26601.562500	-124.415810
26625.000000	-124.341499
26648.437500	-124.376183
26671.875000	-124.441551
26695.312500	-124.395660
26718.750000	-124.299751
26742.187500	-124.315926
26765.625000	-124.330009
26789.062500	-124.346077
26812.500000	-124.436668
26835.937500	-124.420219
26859.375000	-124.369499
26882.812500	-124.422279
26906.250000	-124.452652
26929.687500	-124.394806
26953.125000	-124.334419
26976.562500	-124.369415
27000.000000	-124.287514
27023.437500	-124.312370
27046.875000	-124.365700
27070.312500	-124.409660
27093.750000	-124.353104
27117.187500	-124.376579
27140.625000	-124.502739
27164.062500	-124.392097
27187.500000	-124.374687
27210.937500	-124.415817
27234.375000	-124.437248
27257.812500	-124.472374
27281.250000	-124.550331
27304.687500	-124.526772
27328.125000	-124.476357
27351.562500	-124.426941
27375.000000	-124.395020
27398.437500	-124.328461
27421.875000	-124.404472
27445.312500	-124.497223
27468.750000	-124.529831
27492.187500	-124.499191
27515.625000	-124.393326
27539.062500	-124.353958
27562.500000	-124.326485
27585.937500	-124.348831
27609.375000	-124.425598
27632.812500	-124.346291
27656.250000	-124.401680
27679.687500	-124.437820
27703.125000	-124.485054
27726.562500	-124.514084
27750.000000	-124.518867
27773.437500	-124.516464
27796.875000	-124.563759
27820.312500	-124.451530
27843.750000	-124.409538
27867.187500	-124.440277
27890.625000	-124.462532
27914.062500	-124.434143
27937.500000	-124.462425
27960.937500	-124.517502
27984.375000	-124.526138
28007.812500	-124.531288
28031.250000	-124.461891
28054.687500	-124.380936
28078.125000	-124.469971
28101.562500	-124.520004
28125.000000	-124.529984
28148.437500	-124.544495
28171.875000	-124.537415
28195.312500	-124.501633
28218.750000	-124.531754
28242.187500	-124.460083
28265.625000	-124.484795
28289.062500	-124.507530
28312.500000	-124.434113
28335.937500	-124.406746
28359.375000	-124.444252
28382.812500	-124.431992
28406.250000	-124.424500
28429.687500	-124.448441
28453.125000	-124.439468
28476.562500	-124.468597
28500.000000	-124.374969
28523.437500	-124.464806
28546.875000	-124.457932
28570.312500	-124.435783
28593.750000	-124.522362
28617.187500	-124.515839
28640.625000	-124.446495
28664.062500	-124.420578
28687.500000	-124.465004
28710.937500	-124.492432
28734.375000	-124.452339
28757.812500	-124.500450
28781.250000	-124.545914
28804.687500	-124.593910
28828.125000	-124.537376
28851.562500	-124.552666
28875.000000	-124.566422
28898.437500	-124.486847
28921.875000	-124.500450
28945.312500	-124.516991
28968.750000	-124.538956
28992.187500	-124.500313
29015.625000	-124.454849
29039.062500	-124.406303
29062.500000	-124.510178
29085.937500	-124.533768
29109.375000	-124.478600
29132.812500	-124.475647
29156.250000	-124.529167
29179.687500	-124.445763
29203.125000	-124.495110
29226.562500	-124.505768
29250.000000	-124.485138
29273.437500	-124.492996
29296.875000	-124.459999
29320.312500	-124.471420
29343.750000	-124.516495
29367.187500	-124.497505
29390.625000	-124.461304
29414.062500	-124.415665
29437.500000	-124.247108
29460.937500	-124.169548
29484.375000	-124.299919
29507.812500	-124.404266
29531.250000	-124.503784
29554.687500	-124.511749
29578.125000	-124.389053
29601.562500	-124.325325
29625.000000	-124.384552
29648.437500	-124.504982
29671.875000	-124.636139
29695.312500	-124.553810
29718.750000	-124.469681
29742.187500	-124.481308
29765.625000	-124.531303
29789.062500	-124.469673
29812.500000	-124.451057
29835.937500	-124.575409
29859.375000	-124.553009
29882.812500	-124.608925
29906.250000	-124.613411
29929.687500	-124.615578
29953.125000	-124.565193
29976.562500	-124.415230
30000.000000	-124.217354
30023.437500	-124.500267
30046.875000	-124.528534
30070.312500	-124.534676
30093.750000	-124.548630
30117.187500	-124.630508
30140.625000	-124.754776
30164.062500	-124.683853
30187.500000	-124.583237
30210.937500	-124.634789
30234.375000	-124.709442
30257.812500	-124.628082
30281.250000	-124.546661
30304.687500	-124.526672
30328.125000	-124.613472
30351.562500	-124.645058
30375.000000	-124.638199
30398.437500	-124.669548
30421.875000	-124.580765
30445.312500	-124.624359
30468.750000	-124.622650
30492.187500	-124.656792
30515.625000	-124.658958
30539.062500	-124.674850
30562.500000	-124.717613
30585.937500	-124.606888
30609.375000	-124.635612
30632.812500	-124.715950
30656.250000	-124.669968
30679.687500	-124.643944
30703.125000	-124.682457
30726.562500	-124.672020
30750.000000	-124.705124
30773.437500	-124.747086
30796.875000	-124.694290
30820.312500	-124.557396
30843.750000	-124.585472
30867.187500	-124.721001
30890.625000	-124.623398
30914.062500	-124.605133
30937.500000	-124.610542
30960.937500	-124.601273
30984.375000	-124.614113
31007.812500	-124.618652
31031.250000	-124.698654
31054.687500	-124.718224
31078.125000	-124.702705
31101.562500	-124.662430
31125.000000	-124.646744
31148.437500	-124.610802
31171.875000	-124.653770
31195.312500	-124.667679
31218.750000	-124.724998
31242.187500	-124.726372
31265.625000	-124.722260
31289.062500	-124.714867
31312.500000	-124.623535
31335.937500	-124.695557
31359.375000	-124.678665
31382.812500	-124.661423
31406.250000	-124.775970
31429.687500	-124.769585
31453.125000	-124.648987
31476.562500	-124.540741
31500.000000	-124.100899
31523.437500	-124.538780
31546.875000	-124.678352
31570.312500	-124.581360
31593.750000	-124.549545
31617.187500	-124.591011
31640.625000	-124.685730
31664.062500	-124.672264
31687.500000	-124.624886
31710.937500	-124.615532
31734.375000	-124.749016
31757.812500	-124.700272
31781.250000	-124.638893
31804.687500	-124.706245
31828.125000	-124.764923
31851.562500	-124.776314
31875.000000	-124.722633
31898.437500	-124.740250
31921.875000	-124.807877
31945.312500	-124.766899
31968.750000	-124.716377
31992.187500	-124.778587
32015.625000	-124.729881
32039.062500	-124.692909
32062.500000	-124.708565
32085.937500	-124.754295
32109.375000	-124.709274
32132.812500	-124.634300
32156.250000	-124.668312
32179.687500	-124.651871
32203.125000	-124.712952
32226.562500	-124.748627
32250.000000	-124.716209
32273.437500	-124.802383
32296.875000	-124.818359
32320.312500	-124.837479
32343.750000	-124.645515
32367.187500	-124.683037
32390.625000	-124.726074
32414.062500	-124.733673
32437.500000	-124.771919
32460.937500	-124.698082
32484.375000	-124.723358
32507.812500	-124.814606
32531.250000	-124.837029
32554.687500	-124.734421
32578.125000	-124.718689
32601.562500	-124.707344
32625.000000	-124.706421
32648.437500	-124.706779
32671.875000	-124.729660
32695.312500	-124.696114
32718.750000	-124.743912
32742.187500	-124.750275
32765.625000	-124.757202
32789.062500	-124.732979
32812.500000	-124.714455
32835.937500	-124.647964
32859.375000	-124.682968
32882.812500	-124.718414
32906.250000	-124.804184
32929.687500	-124.844093
32953.125000	-124.796577
32976.562500	-124.609833
33000.000000	-124.056252
33023.437500	-124.659378
33046.875000	-124.967499
33070.312500	-124.881500
33093.750000	-124.858299
33117.187500	-124.788124
33140.625000	-124.714569
33164.062500	-124.739174
33187.500000	-124.790337
33210.937500	-124.859116
33234.375000	-124.867195
33257.812500	-124.876892
33281.250000	-124.780533
33304.687500	-124.760956
33328.125000	-124.737076
33351.562500	-124.754173
33375.000000	-124.840691
33398.437500	-124.966431
33421.875000	-124.863976
33445.312500	-124.787392
33468.750000	-124.742271
33492.187500	-124.803200
33515.625000	-124.758400
33539.062500	-124.739311
33562.500000	-124.775497
33585.937500	-124.777145
33609.375000	-124.694397
33632.812500	-124.663033
33656.250000	-124.692551
33679.687500	-124.667656
33703.125000	-124.694855
33726.562500	-124.742874
33750.000000	-124.818016
33773.437500	-124.885529
33796.875000	-124.776794
33820.312500	-124.680336
33843.750000	-124.691078
33867.187500	-124.677177
33890.625000	-124.725800
33914.062500	-124.771538
33937.500000	-124.772049
33960.937500	-124.853043
33984.375000	-124.793259
34007.812500	-124.715096
34031.250000	-124.703285
34054.687500	-124.780052
34078.125000	-124.833138
34101.562500	-124.849167
34125.000000	-124.823654
34148.437500	-124.851189
34171.875000	-124.858879
34195.312500	-124.849236
34218.750000	-124.816917
34242.187500	-124.810440
34265.625000	-124.851654
34289.062500	-124.846581
34312.500000	-124.784119
34335.937500	-124.771111
34359.375000	-124.880608
34382.812500	-124.885300
34406.250000	-124.880348
34429.687500	-124.885826
34453.125000	-124.875664
34476.562500	-124.704247
34500.000000	-124.331276
34523.437500	-124.643028
34546.875000	-124.814308
34570.312500	-124.806038
34593.750000	-124.891220
34617.187500	-124.900429
34640.625000	-124.879036
34664.062500	-124.910995
34687.500000	-124.904572
34710.937500	-124.816635
34734.375000	-124.833046
34757.812500	-124.840919
34781.250000	-124.889961
34804.687500	-124.937111
34828.125000	-124.917870
34851.562500	-124.831993
34875.000000	-124.804855
34898.437500	-124.820816
34921.875000	-124.879486
34945.312500	-124.880852
34968.750000	-124.865532
34992.187500	-124.803322
35015.625000	-124.822807
35039.062500	-124.901993
35062.500000	-124.904060
35085.937500	-124.886215
35109.375000	-124.916916
35132.812500	-124.907333
35156.250000	-124.886353
35179.687500	-124.891701
35203.125000	-124.931618
35226.562500	-124.907249
35250.000000	-124.855309
35273.437500	-124.854233
35296.875000	-124.868095
35320.312500	-124.967926
35343.750000	-124.939728
35367.187500	-124.822823
35390.625000	-124.881386
35414.062500	-124.958443
35437.500000	-124.915031
35460.937500	-124.939743
35484.375000	-124.977936
35507.812500	-124.989655
35531.250000	-124.943977
35554.687500	-124.971916
35578.125000	-124.829369
35601.562500	-124.831329
35625.000000	-124.855293
35648.437500	-124.906693
35671.875000	-124.942566
35695.312500	-124.945000
35718.750000	-124.955154
35742.187500	-124.931709
35765.625000	-124.929970
35789.062500	-124.931496
35812.500000	-124.875633
35835.937500	-124.937027
35859.375000	-124.928917
35882.812500	-124.921181
35906.250000	-124.943138
35929.687500	-124.888550
35953.125000	-124.957169
35976.562500	-124.915588
36000.000000	-124.763916
36023.437500	-124.928291
36046.875000	-124.960838
36070.312500	-124.936813
36093.750000	-124.963638
36117.187500	-124.966034
36140.625000	-124.933762
36164.062500	-124.952827
36187.500000	-124.933060
36210.937500	-125.065735
36234.375000	-125.043633
36257.812500	-124.927872
36281.250000	-124.929565
36304.687500	-124.979294
36328.125000	-124.967026
36351.562500	-125.059692
36375.000000	-124.979263
36398.437500	-124.952309
36421.875000	-125.034286
36445.312500	-125.118805
36468.750000	-125.057716
36492.187500	-125.016556
36515.625000	-125.021202
36539.062500	-125.024368
36562.500000	-124.963257
36585.937500	-124.979820
36609.375000	-124.981956
36632.812500	-124.955849
36656.250000	-124.964256
36679.687500	-124.927307
36703.125000	-124.997498
36726.562500	-124.961006
36750.000000	-124.920738
36773.437500	-124.936096
36796.875000	-125.001816
36820.312500	-125.011566
36843.750000	-124.979492
36867.187500	-124.992325
36890.625000	-124.968666
36914.062500	-125.037094
36937.500000	-125.056732
36960.937500	-125.006912
36984.375000	-124.913788
37007.812500	-124.911407
37031.250000	-124.984581
37054.687500	-125.064484
37078.125000	-125.085312
37101.562500	-125.020790
37125.000000	-125.000473
37148.437500	-124.941734
37171.875000	-124.978882
37195.312500	-125.087357
37218.750000	-125.053429
37242.187500	-124.968826
37265.625000	-124.926613
37289.062500	-124.966560
37312.500000	-124.952736
37335.937500	-125.004303
37359.375000	-124.976540
37382.812500	-125.103302
37406.250000	-125.092651
37429.687500	-125.074715
37453.125000	-125.140816
37476.562500	-125.045280
37500.000000	-125.013000
37523.437500	-125.082932
37546.875000	-124.937996
37570.312500	-124.912514
37593.750000	-124.997696
37617.187500	-125.073845
37640.625000	-124.953583
37664.062500	-124.993340
37687.500000	-125.118202
37710.937500	-125.098930
37734.375000	-125.051651
37757.812500	-125.080391
37781.250000	-125.046822
37804.687500	-125.050873
37828.125000	-125.082130
37851.562500	-125.002899
37875.000000	-124.986885
37898.437500	-125.035538
37921.875000	-124.979332
37945.312500	-124.921318
37968.750000	-124.986115
37992.187500	-124.889771
38015.625000	-124.871399
38039.062500	-124.806084
38062.500000	-124.620483
38085.937500	-124.576126
38109.375000	-124.602394
38132.812500	-124.613052
38156.250000	-124.522141
38179.687500	-124.088074
38203.125000	-123.807365
38226.562500	-123.445656
38250.000000	-122.585152
38273.437500	-121.746552
38296.875000	-120.669861
38320.312500	-120.190659
38343.750000	-120.757317
38367.187500	-121.469238
38390.625000	-121.465904
38414.062500	-121.345741
38437.500000	-121.372162
38460.937500	-121.666367
38484.375000	-121.824493
38507.812500	-121.610443
38531.250000	-122.016869
38554.687500	-122.582779
38578.125000	-122.749313
38601.562500	-122.753159
38625.000000	-122.759766
38648.437500	-123.174820
38671.875000	-123.490868
38695.312500	-123.563339
38718.750000	-123.500893
38742.187500	-123.578636
38765.625000	-123.708183
38789.062500	-123.906693
38812.500000	-123.938843
38835.937500	-124.009132
38859.375000	-124.011887
38882.812500	-124.010590
38906.250000	-124.171753
38929.687500	-124.471031
38953.125000	-124.610909
38976.562500	-124.629128
39000.000000	-124.528206
39023.437500	-124.766548
39046.875000	-124.879021
39070.312500	-124.880135
39093.750000	-124.874031
39117.187500	-124.854347
39140.625000	-124.854202
39164.062500	-124.911278
39187.500000	-124.912872
39210.937500	-124.845627
39234.375000	-124.821655
39257.812500	-124.958992
39281.250000	-125.002991
39304.687500	-125.019539
39328.125000	-125.006493
39351.562500	-125.040871
39375.000000	-125.116364
39398.437500	-125.075722
39421.875000	-125.074959
39445.312500	-125.048111
39468.750000	-125.063194
39492.187500	-125.068886
39515.625000	-125.052460
39539.062500	-125.048416
39562.500000	-125.136032
39585.937500	-125.089371
39609.375000	-125.027802
39632.812500	-125.142365
39656.250000	-125.124367
39679.687500	-125.179031
39703.125000	-125.157372
39726.562500	-125.148201
39750.000000	-125.157089
39773.437500	-125.109070
39796.875000	-125.162186
39820.312500	-125.242622
39843.750000	-125.120415
39867.187500	-125.066528
39890.625000	-125.066757
39914.062500	-125.113342
39937.500000	-125.245293
39960.937500	-125.227974
39984.375000	-125.151054
40007.812500	-125.122749
40031.250000	-125.132523
40054.687500	-125.149895
40078.125000	-125.106010
40101.562500	-125.160103
40125.000000	-125.260208
40148.437500	-125.197350
40171.875000	-125.146576
40195.312500	-125.219841
40218.750000	-125.139938
40242.187500	-124.630661
40265.625000	-122.710785
40289.062500	-124.143288
40312.500000	-125.163498
40335.937500	-125.219994
40359.375000	-125.248428
40382.812500	-125.160858
40406.250000	-125.143738
40429.687500	-125.157791
40453.125000	-125.169144
40476.562500	-125.024643
40500.000000	-124.651695
40523.437500	-124.986206
40546.875000	-125.162468
40570.312500	-125.098259
40593.750000	-125.061462
40617.187500	-125.021523
40640.625000	-125.061546
40664.062500	-125.160271
40687.500000	-125.205246
40710.937500	-125.160538
40734.375000	-125.228622
40757.812500	-125.217392
40781.250000	-125.289497
40804.687500	-125.236259
40828.125000	-125.162277
40851.562500	-125.235489
40875.000000	-125.225037
40898.437500	-125.155533
40921.875000	-125.207527
40945.312500	-125.290840
40968.750000	-125.288353
40992.187500	-125.249924
41015.625000	-125.221992
41039.062500	-125.142700
41062.500000	-125.201584
41085.937500	-125.226219
41109.375000	-125.156944
41132.812500	-125.149658
41156.250000	-125.118523
41179.687500	-125.147545
41203.125000	-125.208710
41226.562500	-125.247459
41250.000000	-125.241432
41273.437500	-125.340248
41296.875000	-125.267639
41320.312500	-125.314842
41343.750000	-125.387131
41367.187500	-125.380638
41390.625000	-125.381325
41414.062500	-125.382446
41437.500000	-125.417465
41460.937500	-125.359192
41484.375000	-125.391945
41507.812500	-125.351875
41531.250000	-125.353844
41554.687500	-125.395584
41578.125000	-125.322365
41601.562500	-125.294533
41625.000000	-125.365799
41648.437500	-125.373840
41671.875000	-125.291145
41695.312500	-125.353867
41718.750000	-125.458145
41742.187500	-125.394341
41765.625000	-125.309334
41789.062500	-125.327713
41812.500000	-125.395340
41835.937500	-125.419571
41859.375000	-125.461227
41882.812500	-125.520020
41906.250000	-125.494995
41929.687500	-125.436668
41953.125000	-125.482788
41976.562500	-125.343575
42000.000000	-124.851158
42023.437500	-125.271591
42046.875000	-125.461914
42070.312500	-125.457527
42093.750000	-125.411392
42117.187500	-125.447823
42140.625000	-125.392319
42164.062500	-125.371719
42187.500000	-125.511726
42210.937500	-125.537384
42234.375000	-125.417267
42257.812500	-125.407875
42281.250000	-125.550919
42304.687500	-125.549278
42328.125000	-125.471169
42351.562500	-125.575920
42375.000000	-125.565880
42398.437500	-125.563339
42421.875000	-125.617958
42445.312500	-125.591095
42468.750000	-125.647896
42492.187500	-125.632179
42515.625000	-125.612015
42539.062500	-125.690941
42562.500000	-125.714050
42585.937500	-125.575150
42609.375000	-125.594696
42632.812500	-125.636520
42656.250000	-125.725723
42679.687500	-125.750114
42703.125000	-125.680557
42726.562500	-125.611870
42750.000000	-125.681221
42773.437500	-125.685379
42796.875000	-125.688889
42820.312500	-125.643730
42843.750000	-125.663528
42867.187500	-125.739174
42890.625000	-125.774895
42914.062500	-125.667137
42937.500000	-125.666275
42960.937500	-125.724869
42984.375000	-125.723503
43007.812500	-125.703621
43031.250000	-125.737549
43054.687500	-125.839386
43078.125000	-125.882866
43101.562500	-125.946861
43125.000000	-125.956955
43148.437500	-125.875954
43171.875000	-125.790764
43195.312500	-125.856331
43218.750000	-125.908264
43242.187500	-125.866493
43265.625000	-125.830467
43289.062500	-125.764130
43312.500000	-125.812752
43335.937500	-125.863205
43359.375000	-125.934158
43382.812500	-125.907303
43406.250000	-125.920753
43429.687500	-125.981461
43453.125000	-126.002274
43476.562500	-125.874260
43500.000000	-125.428253
43523.437500	-125.876457
43546.875000	-126.033424
43570.312500	-126.073242
43593.750000	-126.099266
43617.187500	-126.119659
43640.625000	-126.096329
43664.062500	-126.031960
43687.500000	-126.104889
43710.937500	-126.136772
43734.375000	-126.186668
43757.812500	-126.210297
43781.250000	-126.159004
43804.687500	-126.128029
43828.125000	-126.133934
43851.562500	-126.177483
43875.000000	-126.137489
43898.437500	-126.132957
43921.875000	-126.233551
43945.312500	-126.212807
43968.750000	-126.199020
43992.187500	-126.202454
44015.625000	-126.299019
44039.062500	-126.277473
44062.500000	-126.305031
44085.937500	-126.368668
44109.375000	-126.444427
44132.812500	-126.379112
44156.250000	-126.364212
44179.687500	-126.412598
44203.125000	-126.484695
44226.562500	-126.401398
44250.000000	-126.451378
44273.437500	-126.464050
44296.875000	-126.456787
44320.312500	-126.431282
44343.750000	-126.444748
44367.187500	-126.531235
44390.625000	-126.598022
44414.062500	-126.585396
44437.500000	-126.472160
44460.937500	-126.523537
44484.375000	-126.592033
44507.812500	-126.579895
44531.250000	-126.595596
44554.687500	-126.616707
44578.125000	-126.714569
44601.562500	-126.702141
44625.000000	-126.689896
44648.437500	-126.630997
44671.875000	-126.595825
44695.312500	-126.693329
44718.750000	-126.762299
44742.187500	-126.716324
44765.625000	-126.544495
44789.062500	-126.610054
44812.500000	-126.677849
44835.937500	-126.712067
44859.375000	-126.671524
44882.812500	-126.718597
44906.250000	-126.882240
44929.687500	-126.841454
44953.125000	-126.687805
44976.562500	-126.680038
45000.000000	-126.425659
45023.437500	-126.784477
45046.875000	-126.934731
45070.312500	-126.838280
45093.750000	-126.903473
45117.187500	-126.898651
45140.625000	-127.073143
45164.062500	-126.919609
45187.500000	-126.996758
45210.937500	-127.167046
45234.375000	-127.155960
45257.812500	-127.030579
45281.250000	-127.074989
45304.687500	-127.119804
45328.125000	-127.150787
45351.562500	-127.078957
45375.000000	-127.147606
45398.437500	-127.313248
45421.875000	-127.317581
45445.312500	-127.304298
45468.750000	-127.289696
45492.187500	-127.374969
45515.625000	-127.367111
45539.062500	-127.362564
45562.500000	-127.268829
45585.937500	-127.396019
45609.375000	-127.467659
45632.812500	-127.445984
45656.250000	-127.399681
45679.687500	-127.436241
45703.125000	-127.551117
45726.562500	-127.579544
45750.000000	-127.528252
45773.437500	-127.504501
45796.875000	-127.670822
45820.312500	-127.669662
45843.750000	-127.696129
45867.187500	-127.694733
45890.625000	-127.740105
45914.062500	-127.774376
45937.500000	-127.704346
45960.937500	-127.593369
45984.375000	-127.673218
46007.812500	-127.722092
46031.250000	-127.797279
46054.687500	-127.676315
46078.125000	-127.709793
46101.562500	-127.974091
46125.000000	-127.885216
46148.437500	-127.680367
46171.875000	-127.657478
46195.312500	-127.867386
46218.750000	-127.812538
46242.187500	-127.057617
46265.625000	-127.324425
46289.062500	-127.950668
46312.500000	-128.091629
46335.937500	-127.980171
46359.375000	-127.860046
46382.812500	-128.043610
46406.250000	-128.217484
46429.687500	-128.213013
46453.125000	-128.112534
46476.562500	-127.995056
46500.000000	-127.836212
46523.437500	-128.034744
46546.875000	-128.156830
46570.312500	-128.233292
46593.750000	-128.369171
46617.187500	-128.334808
46640.625000	-128.309174
46664.062500	-128.314972
46687.500000	-128.359039
46710.937500	-128.067307
46734.375000	-128.148300
46757.812500	-128.358551
46781.250000	-128.381577
46804.687500	-127.125603
46828.125000	-126.893059
46851.562500	-128.438477
46875.000000	-128.383911
46898.437500	-128.236542
46921.875000	-128.023163
46945.312500	-128.414978
46968.750000	-128.488510
46992.187500	-128.560074
47015.625000	-128.486862
47039.062500	-128.468277
47062.500000	-128.520020
47085.937500	-128.619415
47109.375000	-128.602493
47132.812500	-128.609421
47156.250000	-128.564865
47179.687500	-128.650223
47203.125000	-128.665833
47226.562500	-128.607773
47250.000000	-128.699524
47273.437500	-128.715958
47296.875000	-128.684128
47320.312500	-128.664780
47343.750000	-128.751907
47367.187500	-128.844421
47390.625000	-128.864227
47414.062500	-128.823166
47437.500000	-128.794937
47460.937500	-128.784790
47484.375000	-128.779755
47507.812500	-128.801376
47531.250000	-128.833664
47554.687500	-128.786240
47578.125000	-128.777100
47601.562500	-128.863571
47625.000000	-128.839630
47648.437500	-128.845123
47671.875000	-128.894409
47695.312500	-128.990631
47718.750000	-128.991211
47742.187500	-128.909012
47765.625000	-128.943604
47789.062500	-128.881882
47812.500000	-128.836533
47835.937500	-128.904678
47859.375000	-128.890915
47882.812500	-128.887375
47906.250000	-128.820892
47929.687500	-128.830261
47953.125000	-128.858032
47976.562500	-128.785934
