주파수 (Hz)	레벨 (dB)
11.718750	-108.070122
23.437500	-104.021492
35.156250	-97.112267
46.875000	-90.328262
58.593750	-83.504478
70.312500	-70.912399
82.031250	-59.978432
93.750000	-49.537327
105.468750	-50.441845
117.187500	-57.021664
128.906250	-56.230106
140.625000	-44.040810
152.343750	-42.814690
164.062500	-49.109287
175.781250	-45.821198
187.500000	-35.763374
199.218750	-32.364891
210.937500	-41.030788
222.656250	-47.259632
234.375000	-53.954632
246.093750	-57.441689
257.812500	-55.400787
269.531250	-51.810570
281.250000	-45.097080
292.968750	-38.741154
304.687500	-42.846420
316.406250	-52.843941
328.125000	-52.243759
339.843750	-40.064934
351.562500	-35.578190
363.281250	-41.868710
375.000000	-44.416714
386.718750	-35.384975
398.437500	-34.831276
410.156250	-44.356026
421.875000	-47.075832
433.593750	-34.715321
445.312500	-32.258354
457.031250	-40.105274
468.750000	-47.205868
480.468750	-49.640297
492.187500	-48.266182
503.906250	-47.096554
515.625000	-35.996666
527.343750	-32.205875
539.062500	-39.180454
550.781250	-52.264980
562.500000	-49.867378
574.218750	-41.631500
585.937500	-32.159893
597.656250	-33.444950
609.375000	-47.979267
621.093750	-54.097683
632.812500	-53.206390
644.531250	-52.876610
656.250000	-49.257313
667.968750	-44.840267
679.687500	-39.659748
691.406250	-31.389053
703.125000	-27.423811
714.843750	-33.896339
726.562500	-46.063293
738.281250	-50.549313
750.000000	-52.082764
761.718750	-50.095657
773.437500	-39.900265
785.156250	-31.358637
796.875000	-33.930180
808.593750	-46.215179
820.312500	-49.855930
832.031250	-50.065636
843.750000	-48.920345
855.468750	-45.363613
867.187500	-33.925041
878.906250	-23.284868
890.625000	-23.718922
902.343750	-35.335190
914.062500	-48.270515
925.781250	-55.311619
937.500000	-58.718765
949.218750	-59.711792
960.937500	-56.292286
972.656250	-55.645996
984.375000	-54.223522
996.093750	-56.763657
1007.812500	-63.601429
1019.531250	-60.845753
1031.250000	-56.161983
1042.968750	-50.533607
1054.687500	-46.126041
1066.406250	-51.900623
1078.125000	-59.522362
1089.843750	-56.813992
1101.562500	-51.370239
1113.281250	-52.168118
1125.000000	-61.805443
1136.718750	-63.490616
1148.437500	-62.092617
1160.156250	-57.928185
1171.875000	-42.662624
1183.593750	-37.179626
1195.312500	-42.593468
1207.031250	-56.795788
1218.750000	-55.889393
1230.468750	-52.030441
1242.187500	-56.144001
1253.906250	-62.840286
1265.625000	-63.978081
1277.343750	-61.323547
1289.062500	-58.981762
1300.781250	-57.627964
1312.500000	-51.405289
1324.218750	-44.316441
1335.937500	-45.864281
1347.656250	-52.463345
1359.375000	-59.413395
1371.093750	-51.480587
1382.812500	-46.585827
1394.531250	-50.118279
1406.250000	-47.558208
1417.968750	-51.774864
1429.687500	-61.408054
1441.406250	-59.983376
1453.125000	-59.531326
1464.843750	-59.780369
1476.562500	-54.907959
1488.281250	-54.735069
1500.000000	-61.762573
1511.718750	-69.523941
1523.437500	-66.835594
1535.156250	-64.885788
1546.875000	-58.735229
1558.593750	-55.842041
1570.312500	-45.269005
1582.031250	-38.418041
1593.750000	-41.673687
1605.468750	-56.331718
1617.187500	-64.333450
1628.906250	-63.722145
1640.625000	-63.679062
1652.343750	-62.451290
1664.062500	-63.344257
1675.781250	-64.149628
1687.500000	-64.739182
1699.218750	-64.717560
1710.937500	-63.508129
1722.656250	-61.141830
1734.375000	-57.458626
1746.093750	-53.807858
1757.812500	-44.817196
1769.531250	-38.328720
1781.250000	-39.798611
1792.968750	-49.617661
1804.687500	-61.016247
1816.406250	-63.469673
1828.125000	-64.335564
1839.843750	-64.615273
1851.562500	-65.596741
1863.281250	-65.122795
1875.000000	-64.731087
1886.718750	-65.191833
1898.437500	-65.452759
1910.156250	-66.675339
1921.875000	-64.163086
1933.593750	-57.907051
1945.312500	-56.275581
1957.031250	-61.514614
1968.750000	-54.768539
1980.468750	-50.445454
1992.187500	-54.946972
2003.906250	-60.912151
2015.625000	-66.470139
2027.343750	-72.263687
2039.062500	-71.750061
2050.781250	-70.309021
2062.500000	-68.088028
2074.218750	-59.132355
2085.937500	-57.553673
2097.656250	-59.724892
2109.375000	-50.039883
2121.093750	-46.338264
2132.812500	-52.229191
2144.531250	-63.545341
2156.250000	-66.851532
2167.968750	-67.968498
2179.687500	-65.398201
2191.406250	-63.989971
2203.125000	-64.563332
2214.843750	-50.959171
2226.562500	-44.749641
2238.281250	-49.104740
2250.000000	-59.699810
2261.718750	-65.931099
2273.437500	-67.389481
2285.156250	-66.489548
2296.875000	-65.571892
2308.593750	-65.362549
2320.312500	-67.814865
2332.031250	-67.264412
2343.750000	-67.212440
2355.468750	-61.251156
2367.187500	-51.202122
2378.906250	-44.456001
2390.625000	-46.258850
2402.343750	-56.804218
2414.062500	-64.641624
2425.781250	-65.503754
2437.500000	-66.463318
2449.218750	-69.804169
2460.937500	-68.385201
2472.656250	-61.991638
2484.375000	-55.295815
2496.093750	-57.576580
2507.812500	-68.905113
2519.531250	-73.316650
2531.250000	-73.824806
2542.968750	-74.104210
2554.687500	-73.993057
2566.406250	-75.755440
2578.125000	-73.649849
2589.843750	-67.905312
2601.562500	-68.302208
2613.281250	-73.754135
2625.000000	-71.136040
2636.718750	-64.837662
2648.437500	-57.682735
2660.156250	-47.924122
2671.875000	-45.929893
2683.593750	-47.345596
2695.312500	-53.100803
2707.031250	-63.441711
2718.750000	-68.942451
2730.468750	-73.754929
2742.187500	-75.505226
2753.906250	-74.690208
2765.625000	-74.223969
2777.343750	-67.618607
2789.062500	-60.659237
2800.781250	-60.658405
2812.500000	-65.547127
2824.218750	-55.317753
2835.937500	-49.479061
2847.656250	-53.696434
2859.375000	-63.266663
2871.093750	-67.072792
2882.812500	-68.424286
2894.531250	-70.773224
2906.250000	-72.253075
2917.968750	-69.390823
2929.687500	-70.920349
2941.406250	-74.132538
2953.125000	-72.927338
2964.843750	-72.315239
2976.562500	-67.681046
2988.281250	-58.285809
3000.000000	-58.235699
3011.718750	-58.657162
3023.437500	-63.548172
3035.156250	-74.437721
3046.875000	-76.671585
3058.593750	-76.692436
3070.312500	-72.940445
3082.031250	-72.205421
3093.750000	-71.339836
3105.468750	-70.679504
3117.187500	-67.928268
3128.906250	-58.334946
3140.625000	-50.831348
3152.343750	-52.698910
3164.062500	-61.440563
3175.781250	-60.224674
3187.500000	-53.823078
3199.218750	-54.785770
3210.937500	-58.542187
3222.656250	-62.497814
3234.375000	-69.939346
3246.093750	-73.197838
3257.812500	-74.586884
3269.531250	-75.283272
3281.250000	-75.437881
3292.968750	-74.376640
3304.687500	-71.946487
3316.406250	-71.219719
3328.125000	-72.069748
3339.843750	-71.324348
3351.562500	-78.357101
3363.281250	-81.112968
3375.000000	-80.310417
3386.718750	-75.919037
3398.437500	-77.091583
3410.156250	-82.868042
3421.875000	-79.278252
3433.593750	-79.130524
3445.312500	-78.896919
3457.031250	-79.445930
3468.750000	-80.184258
3480.468750	-79.533615
3492.187500	-78.899178
3503.906250	-79.821075
3515.625000	-76.981659
3527.343750	-72.610191
3539.062500	-69.055260
3550.781250	-66.150681
3562.500000	-63.986656
3574.218750	-58.089874
3585.937500	-56.863419
3597.656250	-58.953327
3609.375000	-59.158817
3621.093750	-60.955952
3632.812500	-67.810593
3644.531250	-72.967667
3656.250000	-77.721062
3667.968750	-80.864746
3679.687500	-81.054543
3691.406250	-80.829124
3703.125000	-80.729950
3714.843750	-80.875771
3726.562500	-79.772850
3738.281250	-79.091461
3750.000000	-77.633484
3761.718750	-66.117004
3773.437500	-63.583038
3785.156250	-70.967300
3796.875000	-78.609764
3808.593750	-77.926155
3820.312500	-81.140892
3832.031250	-84.889694
3843.750000	-84.393303
3855.468750	-84.990601
3867.187500	-84.454681
3878.906250	-84.368645
3890.625000	-84.434219
3902.343750	-86.842636
3914.062500	-86.670227
3925.781250	-83.439079
3937.500000	-82.467773
3949.218750	-81.802895
3960.937500	-79.408264
3972.656250	-78.210480
3984.375000	-75.593163
3996.093750	-66.834129
4007.812500	-63.620472
4019.531250	-64.555908
4031.250000	-69.945351
4042.968750	-77.562218
4054.687500	-75.238731
4066.406250	-74.234665
4078.125000	-62.539421
4089.843750	-58.583672
4101.562500	-64.111366
4113.281250	-71.242836
4125.000000	-76.869354
4136.718750	-79.963074
4148.437500	-79.245239
4160.156250	-78.153603
4171.875000	-79.656570
4183.593750	-80.227051
4195.312500	-78.875984
4207.031250	-78.720467
4218.750000	-74.824829
4230.468750	-67.268532
4242.187500	-60.965321
4253.906250	-63.189011
4265.625000	-73.980034
4277.343750	-81.321556
4289.062500	-81.234673
4300.781250	-72.608109
4312.500000	-69.200966
4324.218750	-64.905151
4335.937500	-61.792709
4347.656250	-67.825043
4359.375000	-78.571602
4371.093750	-81.028954
4382.812500	-83.421768
4394.531250	-83.022102
4406.250000	-82.388916
4417.968750	-78.822823
4429.687500	-74.823906
4441.406250	-73.311523
4453.125000	-72.979553
4464.843750	-73.857468
4476.562500	-70.614182
4488.281250	-70.433723
4500.000000	-66.005516
4511.718750	-58.777439
4523.437500	-58.125687
4535.156250	-58.081867
4546.875000	-61.429413
4558.593750	-70.462456
4570.312500	-70.746666
4582.031250	-73.188805
4593.750000	-79.498116
4605.468750	-80.447762
4617.187500	-84.337364
4628.906250	-82.496788
4640.625000	-80.367294
4652.343750	-79.212234
4664.062500	-79.061516
4675.781250	-77.097672
4687.500000	-75.895454
4699.218750	-81.038452
4710.937500	-82.808937
4722.656250	-83.316513
4734.375000	-81.076233
4746.093750	-76.818062
4757.812500	-79.167824
4769.531250	-80.793182
4781.250000	-81.231544
4792.968750	-82.990952
4804.687500	-84.056900
4816.406250	-81.290565
4828.125000	-74.879662
4839.843750	-70.177277
4851.562500	-67.141106
4863.281250	-68.573250
4875.000000	-67.878853
4886.718750	-66.275002
4898.437500	-72.316673
4910.156250	-75.543633
4921.875000	-74.157028
4933.593750	-71.363617
4945.312500	-74.060448
4957.031250	-83.001167
4968.750000	-86.013199
4980.468750	-84.802444
4992.187500	-85.659935
5003.906250	-85.764343
5015.625000	-84.377434
5027.343750	-82.493820
5039.062500	-82.251999
5050.781250	-75.877701
5062.500000	-68.931595
5074.218750	-70.421135
5085.937500	-79.047302
5097.656250	-81.977844
5109.375000	-84.635277
5121.093750	-86.496826
5132.812500	-86.960190
5144.531250	-82.603455
5156.250000	-82.484764
5167.968750	-87.861702
5179.687500	-87.885689
5191.406250	-88.523102
5203.125000	-88.813545
5214.843750	-87.184486
5226.562500	-86.853691
5238.281250	-90.064102
5250.000000	-91.571968
5261.718750	-81.691086
5273.437500	-78.842567
5285.156250	-82.861656
5296.875000	-84.027214
5308.593750	-84.164780
5320.312500	-84.359634
5332.031250	-81.652870
5343.750000	-83.108994
5355.468750	-82.647522
5367.187500	-82.603928
5378.906250	-84.589561
5390.625000	-86.974617
5402.343750	-88.457932
5414.062500	-86.539124
5425.781250	-84.793037
5437.500000	-77.885681
5449.218750	-70.834297
5460.937500	-67.095764
5472.656250	-67.142624
5484.375000	-68.338547
5496.093750	-70.103470
5507.812500	-78.456627
5519.531250	-79.556931
5531.250000	-78.779373
5542.968750	-80.104492
5554.687500	-72.543732
5566.406250	-68.839798
5578.125000	-72.998032
5589.843750	-82.247299
5601.562500	-86.383575
5613.281250	-89.412666
5625.000000	-92.051788
5636.718750	-95.040932
5648.437500	-94.759018
5660.156250	-91.076111
5671.875000	-91.065506
5683.593750	-86.701241
5695.312500	-83.518845
5707.031250	-73.185867
5718.750000	-68.440491
5730.468750	-70.735733
5742.187500	-68.167534
5753.906250	-68.488144
5765.625000	-78.153175
5777.343750	-83.277908
5789.062500	-86.245392
5800.781250	-82.473343
5812.500000	-73.703026
5824.218750	-62.926529
5835.937500	-61.259121
5847.656250	-68.287682
5859.375000	-78.085533
5871.093750	-81.481895
5882.812500	-82.732666
5894.531250	-84.129776
5906.250000	-84.489174
5917.968750	-85.792496
5929.687500	-85.526848
5941.406250	-82.807770
5953.125000	-81.222664
5964.843750	-80.497528
5976.562500	-83.555679
5988.281250	-84.586838
6000.000000	-84.685822
6011.718750	-84.213806
6023.437500	-83.191505
6035.156250	-78.058044
6046.875000	-75.740051
6058.593750	-78.140305
6070.312500	-79.889099
6082.031250	-73.445702
6093.750000	-73.169182
6105.468750	-78.547081
6117.187500	-79.436470
6128.906250	-78.376663
6140.625000	-82.771622
6152.343750	-82.619568
6164.062500	-82.529541
6175.781250	-82.582397
6187.500000	-84.177841
6199.218750	-85.477386
6210.937500	-81.261482
6222.656250	-78.784218
6234.375000	-81.472862
6246.093750	-87.586472
6257.812500	-92.592949
6269.531250	-94.896622
6281.250000	-92.287155
6292.968750	-90.407532
6304.687500	-90.596748
6316.406250	-90.194168
6328.125000	-89.900620
6339.843750	-87.921669
6351.562500	-88.710251
6363.281250	-86.646309
6375.000000	-84.071518
6386.718750	-85.104126
6398.437500	-87.883621
6410.156250	-90.735916
6421.875000	-91.719772
6433.593750	-89.941689
6445.312500	-84.835098
6457.031250	-75.416016
6468.750000	-70.657295
6480.468750	-70.345490
6492.187500	-75.647476
6503.906250	-70.721146
6515.625000	-69.414963
6527.343750	-77.873657
6539.062500	-86.460617
6550.781250	-86.267761
6562.500000	-86.801537
6574.218750	-85.846832
6585.937500	-80.439735
6597.656250	-73.774986
6609.375000	-71.131248
6621.093750	-73.681389
6632.812500	-79.295273
6644.531250	-84.691513
6656.250000	-87.813141
6667.968750	-85.353409
6679.687500	-81.093750
6691.406250	-83.810188
6703.125000	-91.080154
6714.843750	-85.769318
6726.562500	-83.720428
6738.281250	-86.982269
6750.000000	-82.914612
6761.718750	-80.712387
6773.437500	-85.742737
6785.156250	-91.312683
6796.875000	-92.687790
6808.593750	-91.916458
6820.312500	-93.137878
6832.031250	-94.566544
6843.750000	-96.246269
6855.468750	-96.354057
6867.187500	-95.657333
6878.906250	-95.459427
6890.625000	-94.848190
6902.343750	-90.711166
6914.062500	-89.617508
6925.781250	-91.524734
6937.500000	-93.556747
6949.218750	-94.625008
6960.937500	-92.508636
6972.656250	-88.755402
6984.375000	-89.420090
6996.093750	-93.888893
7007.812500	-94.050652
7019.531250	-96.238823
7031.250000	-96.265396
7042.968750	-94.770744
7054.687500	-96.788742
7066.406250	-97.417717
7078.125000	-95.731796
7089.843750	-95.956566
7101.562500	-95.601936
7113.281250	-96.042282
7125.000000	-83.112335
7136.718750	-78.763626
7148.437500	-81.758461
7160.156250	-89.575981
7171.875000	-94.945686
7183.593750	-97.546616
7195.312500	-97.788071
7207.031250	-96.027245
7218.750000	-98.671272
7230.468750	-95.847244
7242.187500	-92.474533
7253.906250	-96.792191
7265.625000	-98.382690
7277.343750	-97.324570
7289.062500	-95.404823
7300.781250	-96.061363
7312.500000	-98.529327
7324.218750	-99.207069
7335.937500	-98.595360
7347.656250	-98.817986
7359.375000	-98.254807
7371.093750	-97.794830
7382.812500	-96.023354
7394.531250	-93.949760
7406.250000	-93.148041
7417.968750	-91.106827
7429.687500	-88.008003
7441.406250	-86.445740
7453.125000	-84.263260
7464.843750	-77.573395
7476.562500	-74.624542
7488.281250	-75.777420
7500.000000	-79.060562
7511.718750	-79.243935
7523.437500	-76.527077
7535.156250	-76.341103
7546.875000	-82.349411
7558.593750	-86.072189
7570.312500	-87.802330
7582.031250	-90.352882
7593.750000	-92.335876
7605.468750	-91.635559
7617.187500	-90.780060
7628.906250	-90.834183
7640.625000	-89.751465
7652.343750	-90.398285
7664.062500	-88.873894
7675.781250	-80.212875
7687.500000	-75.955528
7699.218750	-79.541916
7710.937500	-88.058975
7722.656250	-92.900497
7734.375000	-95.023430
7746.093750	-98.172752
7757.812500	-100.332489
7769.531250	-101.433914
7781.250000	-99.123749
7792.968750	-98.838997
7804.687500	-98.965378
7816.406250	-96.842369
7828.125000	-97.159996
7839.843750	-91.348351
7851.562500	-79.513351
7863.281250	-75.791374
7875.000000	-81.576286
7886.718750	-93.258568
7898.437500	-96.342468
7910.156250	-98.236206
7921.875000	-98.098457
7933.593750	-98.306168
7945.312500	-100.208740
7957.031250	-99.726532
7968.750000	-98.770744
7980.468750	-96.966209
7992.187500	-95.419533
8003.906250	-96.673531
8015.625000	-98.131584
8027.343750	-98.094917
8039.062500	-96.570633
8050.781250	-94.370293
8062.500000	-89.686699
8074.218750	-89.372978
8085.937500	-95.891396
8097.656250	-89.602982
8109.375000	-89.595146
8121.093750	-94.711693
8132.812500	-97.461082
8144.531250	-98.226547
8156.250000	-100.311089
8167.968750	-102.645866
8179.687500	-100.651894
8191.406250	-101.689896
8203.125000	-103.765572
8214.843750	-101.147491
8226.562500	-97.071678
8238.281250	-92.075974
8250.000000	-85.378769
8261.718750	-85.248421
8273.437500	-91.704536
8285.156250	-94.906593
8296.875000	-96.673828
8308.593750	-96.968781
8320.312500	-96.931839
8332.031250	-95.898193
8343.750000	-93.872055
8355.468750	-89.467064
8367.187500	-86.306084
8378.906250	-86.924622
8390.625000	-90.566704
8402.343750	-93.975807
8414.062500	-95.374611
8425.781250	-88.481422
8437.500000	-84.986000
8449.218750	-86.227997
8460.937500	-89.524872
8472.656250	-89.586243
8484.375000	-90.312233
8496.093750	-91.762421
8507.812500	-89.172852
8519.531250	-78.561562
8531.250000	-74.092857
8542.968750	-74.634056
8554.687500	-78.268562
8566.406250	-87.468254
8578.125000	-80.687210
8589.843750	-82.354759
8601.562500	-87.759087
8613.281250	-90.728745
8625.000000	-92.016037
8636.718750	-94.631210
8648.437500	-97.738098
8660.156250	-99.319473
8671.875000	-97.406059
8683.593750	-99.681587
8695.312500	-101.901810
8707.031250	-101.510506
8718.750000	-101.068268
8730.468750	-100.569977
8742.187500	-99.176178
8753.906250	-98.635658
8765.625000	-101.452888
8777.343750	-101.161583
8789.062500	-97.461578
8800.781250	-96.683662
8812.500000	-98.007919
8824.218750	-90.128883
8835.937500	-87.086876
8847.656250	-91.326202
8859.375000	-94.592499
8871.093750	-92.164345
8882.812500	-92.952530
8894.531250	-94.423584
8906.250000	-94.014648
8917.968750	-93.868011
8929.687500	-94.263489
8941.406250	-96.558655
8953.125000	-100.471657
8964.843750	-101.122643
8976.562500	-103.313515
8988.281250	-102.206429
9000.000000	-101.200760
9011.718750	-100.404175
9023.437500	-100.511627
9035.156250	-100.417084
9046.875000	-98.609375
9058.593750	-97.695999
9070.312500	-97.781761
9082.031250	-97.318291
9093.750000	-97.067299
9105.468750	-92.096222
9117.187500	-84.656006
9128.906250	-84.616837
9140.625000	-91.980553
9152.343750	-96.391617
9164.062500	-97.200493
9175.781250	-102.805145
9187.500000	-106.157082
9199.218750	-104.667068
9210.937500	-100.655434
9222.656250	-96.382423
9234.375000	-94.349640
9246.093750	-95.681221
9257.812500	-97.298431
9269.531250	-98.188553
9281.250000	-99.141441
9292.968750	-99.832985
9304.687500	-100.839272
9316.406250	-101.804535
9328.125000	-100.059097
9339.843750	-99.035698
9351.562500	-98.485893
9363.281250	-96.880066
9375.000000	-95.728142
9386.718750	-94.299576
9398.437500	-97.569618
9410.156250	-91.372452
9421.875000	-91.518150
9433.593750	-92.018715
9445.312500	-91.840012
9457.031250	-96.680588
9468.750000	-94.646034
9480.468750	-94.757286
9492.187500	-95.088409
9503.906250	-95.887558
9515.625000	-95.310974
9527.343750	-96.613510
9539.062500	-97.295784
9550.781250	-101.635155
9562.500000	-101.468102
9574.218750	-96.625664
9585.937500	-90.477768
9597.656250	-86.075859
9609.375000	-86.319618
9621.093750	-88.151672
9632.812500	-89.120148
9644.531250	-90.660583
9656.250000	-92.001381
9667.968750	-89.722969
9679.687500	-88.270447
9691.406250	-91.108894
9703.125000	-93.636292
9714.843750	-93.458809
9726.562500	-95.050728
9738.281250	-99.032555
9750.000000	-100.167152
9761.718750	-96.703323
9773.437500	-96.338829
9785.156250	-96.839249
9796.875000	-96.888275
9808.593750	-98.709274
9820.312500	-100.620369
9832.031250	-99.344154
9843.750000	-98.050964
9855.468750	-95.679985
9867.187500	-95.199432
9878.906250	-95.696678
9890.625000	-93.937973
9902.343750	-95.783379
9914.062500	-102.248802
9925.781250	-102.942520
9937.500000	-103.079330
9949.218750	-107.792282
9960.937500	-103.516281
9972.656250	-94.963089
9984.375000	-93.600052
9996.093750	-93.323151
10007.812500	-96.802658
10019.531250	-95.082832
10031.250000	-90.806923
10042.968750	-93.810402
10054.687500	-95.614487
10066.406250	-95.980766
10078.125000	-98.278526
10089.843750	-99.702293
10101.562500	-101.539185
10113.281250	-103.304901
10125.000000	-104.560310
10136.718750	-101.267776
10148.437500	-102.371750
10160.156250	-101.397369
10171.875000	-96.794960
10183.593750	-95.654785
10195.312500	-96.392281
10207.031250	-98.477936
10218.750000	-103.206665
10230.468750	-100.364433
10242.187500	-98.732491
10253.906250	-99.174126
10265.625000	-100.772850
10277.343750	-101.701591
10289.062500	-101.214325
10300.781250	-102.739670
10312.500000	-102.576912
10324.218750	-99.953583
10335.937500	-96.156013
10347.656250	-93.211685
10359.375000	-95.275597
10371.093750	-102.276115
10382.812500	-101.355774
10394.531250	-99.003143
10406.250000	-96.758263
10417.968750	-96.738800
10429.687500	-97.858635
10441.406250	-96.202461
10453.125000	-95.090973
10464.843750	-94.860947
10476.562500	-95.000885
10488.281250	-96.734688
10500.000000	-101.372177
10511.718750	-96.866791
10523.437500	-95.729744
10535.156250	-99.314766
10546.875000	-103.439941
10558.593750	-100.101418
10570.312500	-97.140816
10582.031250	-96.676407
10593.750000	-96.400070
10605.468750	-95.770920
10617.187500	-96.125549
10628.906250	-93.064651
10640.625000	-91.189293
10652.343750	-90.461998
10664.062500	-89.240906
10675.781250	-90.116051
10687.500000	-91.019508
10699.218750	-91.982361
10710.937500	-92.263908
10722.656250	-91.173241
10734.375000	-91.295830
10746.093750	-91.985786
10757.812500	-92.938141
10769.531250	-92.446747
10781.250000	-90.720932
10792.968750	-89.869286
10804.687500	-88.478889
10816.406250	-86.601128
10828.125000	-86.432205
10839.843750	-87.716248
10851.562500	-91.214149
10863.281250	-95.079140
10875.000000	-91.498291
10886.718750	-88.799515
10898.437500	-89.557159
10910.156250	-93.490036
10921.875000	-98.861107
10933.593750	-97.106583
10945.312500	-96.748497
10957.031250	-98.006805
10968.750000	-99.811279
10980.468750	-98.395813
10992.187500	-96.090294
11003.906250	-93.436661
11015.625000	-89.891975
11027.343750	-87.269699
11039.062500	-86.844833
11050.781250	-91.015755
11062.500000	-91.729935
11074.218750	-89.171074
11085.937500	-89.810837
11097.656250	-91.990631
11109.375000	-94.695129
11121.093750	-90.243980
11132.812500	-84.468773
11144.531250	-83.225296
11156.250000	-86.537537
11167.968750	-93.850235
11179.687500	-99.855705
11191.406250	-99.045280
11203.125000	-102.066376
11214.843750	-106.763443
11226.562500	-106.086205
11238.281250	-101.246132
11250.000000	-99.319687
11261.718750	-97.675293
11273.437500	-94.884842
11285.156250	-96.459839
11296.875000	-101.114571
11308.593750	-102.517082
11320.312500	-97.594696
11332.031250	-94.506638
11343.750000	-97.122932
11355.468750	-102.706421
11367.187500	-102.823898
11378.906250	-100.846695
11390.625000	-99.591103
11402.343750	-100.059441
11414.062500	-101.550331
11425.781250	-103.272697
11437.500000	-103.619125
11449.218750	-104.465187
11460.937500	-100.510826
11472.656250	-96.849281
11484.375000	-99.557747
11496.093750	-98.344536
11507.812500	-100.451057
11519.531250	-105.044075
11531.250000	-106.022247
11542.968750	-104.440720
11554.687500	-103.006912
11566.406250	-104.734329
11578.125000	-107.046577
11589.843750	-106.424507
11601.562500	-105.000153
11613.281250	-104.843399
11625.000000	-103.701126
11636.718750	-102.489769
11648.437500	-102.386208
11660.156250	-103.016487
11671.875000	-103.477448
11683.593750	-104.326912
11695.312500	-104.085037
11707.031250	-102.865662
11718.750000	-105.195969
11730.468750	-107.909157
11742.187500	-107.063782
11753.906250	-108.643578
11765.625000	-109.914238
11777.343750	-107.594879
11789.062500	-108.354218
11800.781250	-112.589157
11812.500000	-112.352615
11824.218750	-111.442535
11835.937500	-110.848625
11847.656250	-110.169678
11859.375000	-110.072464
11871.093750	-107.815773
11882.812500	-106.769287
11894.531250	-105.920982
11906.250000	-105.284065
11917.968750	-108.814430
11929.687500	-104.182899
11941.406250	-100.259552
11953.125000	-96.781525
11964.843750	-92.576439
11976.562500	-93.094849
11988.281250	-96.681282
12000.000000	-97.000130
12011.718750	-98.738335
12023.437500	-98.121796
12035.156250	-93.886246
12046.875000	-94.130371
12058.593750	-95.447380
12070.312500	-99.351822
12082.031250	-101.858109
12093.750000	-101.624275
12105.468750	-101.595833
12117.187500	-102.164925
12128.906250	-104.896606
12140.625000	-109.268158
12152.343750	-112.373993
12164.062500	-105.751053
12175.781250	-98.076035
12187.500000	-98.162086
12199.218750	-105.763412
12210.937500	-105.095413
12222.656250	-105.658501
12234.375000	-107.935280
12246.093750	-108.875549
12257.812500	-107.998810
12269.531250	-108.466667
12281.250000	-109.390221
12292.968750	-112.658829
12304.687500	-115.018356
12316.406250	-110.400124
12328.125000	-107.771255
12339.843750	-107.243622
12351.562500	-108.039772
12363.281250	-108.530647
12375.000000	-106.981522
12386.718750	-107.082520
12398.437500	-109.404030
12410.156250	-108.427643
12421.875000	-107.218643
12433.593750	-107.340309
12445.312500	-108.710526
12457.031250	-105.141647
12468.750000	-103.015266
12480.468750	-105.182701
12492.187500	-110.814217
12503.906250	-113.974464
12515.625000	-113.577736
12527.343750	-110.838028
12539.062500	-109.696236
12550.781250	-109.613647
12562.500000	-111.265327
12574.218750	-106.882011
12585.937500	-104.474731
12597.656250	-102.323524
12609.375000	-102.590851
12621.093750	-103.555244
12632.812500	-106.482208
12644.531250	-109.672356
12656.250000	-110.624313
12667.968750	-110.440689
12679.687500	-111.048973
12691.406250	-115.409744
12703.125000	-113.124657
12714.843750	-110.727295
12726.562500	-110.733109
12738.281250	-109.847618
12750.000000	-110.541595
12761.718750	-112.376930
12773.437500	-112.004349
12785.156250	-111.252869
12796.875000	-111.022972
12808.593750	-110.851044
12820.312500	-112.107246
12832.031250	-114.295662
12843.750000	-112.878731
12855.468750	-112.813362
12867.187500	-113.003426
12878.906250	-112.830521
12890.625000	-112.162666
12902.343750	-110.418175
12914.062500	-110.203224
12925.781250	-109.766502
12937.500000	-110.558952
12949.218750	-113.341393
12960.937500	-113.573303
12972.656250	-113.127579
12984.375000	-115.230499
12996.093750	-115.595909
13007.812500	-112.305458
13019.531250	-107.976486
13031.250000	-110.486412
13042.968750	-114.207985
13054.687500	-114.582451
13066.406250	-115.442284
13078.125000	-116.922813
13089.843750	-115.790779
13101.562500	-113.376640
13113.281250	-111.688637
13125.000000	-107.563873
13136.718750	-106.283867
13148.437500	-106.190659
13160.156250	-105.468521
13171.875000	-109.165802
13183.593750	-109.792374
13195.312500	-105.594986
13207.031250	-101.572052
13218.750000	-96.313049
13230.468750	-91.052620
13242.187500	-92.681717
13253.906250	-99.824089
13265.625000	-104.209320
13277.343750	-104.479301
13289.062500	-102.824402
13300.781250	-105.691414
13312.500000	-107.124832
13324.218750	-107.945000
13335.937500	-107.949295
13347.656250	-108.399849
13359.375000	-113.298355
13371.093750	-110.608414
13382.812500	-108.410263
13394.531250	-109.278854
13406.250000	-110.160606
13417.968750	-110.788445
13429.687500	-111.466080
13441.406250	-112.158150
13453.125000	-112.962852
13464.843750	-115.048920
13476.562500	-117.461388
13488.281250	-116.524399
13500.000000	-115.806038
13511.718750	-116.491127
13523.437500	-116.184784
13535.156250	-114.957161
13546.875000	-114.170341
13558.593750	-113.763580
13570.312500	-114.623177
13582.031250	-116.644493
13593.750000	-116.521225
13605.468750	-117.803284
13617.187500	-117.717041
13628.906250	-116.202232
13640.625000	-116.178368
13652.343750	-116.069008
13664.062500	-113.181969
13675.781250	-109.145943
13687.500000	-108.189751
13699.218750	-111.135597
13710.937500	-115.010071
13722.656250	-114.365555
13734.375000	-111.540413
13746.093750	-111.594238
13757.812500	-112.540031
13769.531250	-113.196030
13781.250000	-110.931129
13792.968750	-110.451317
13804.687500	-111.105354
13816.406250	-113.598854
13828.125000	-115.253273
13839.843750	-114.745720
13851.562500	-114.999023
13863.281250	-113.556877
13875.000000	-112.666931
13886.718750	-113.478439
13898.437500	-112.507462
13910.156250	-112.086693
13921.875000	-112.343124
13933.593750	-110.322235
13945.312500	-107.469482
13957.031250	-106.308701
13968.750000	-108.528038
13980.468750	-109.791245
13992.187500	-108.584900
14003.906250	-109.338707
14015.625000	-114.279366
14027.343750	-113.512367
14039.062500	-109.052254
14050.781250	-110.500298
14062.500000	-114.170364
14074.218750	-115.052338
14085.937500	-115.431198
14097.656250	-115.067650
14109.375000	-114.053261
14121.093750	-113.753128
14132.812500	-112.846046
14144.531250	-114.183441
14156.250000	-114.931122
14167.968750	-114.821419
14179.687500	-112.020866
14191.406250	-111.426277
14203.125000	-112.274757
14214.843750	-113.066376
14226.562500	-114.134964
14238.281250	-115.461723
14250.000000	-116.305550
14261.718750	-115.669151
14273.437500	-114.701561
14285.156250	-114.092514
14296.875000	-113.330788
14308.593750	-114.489365
14320.312500	-113.476295
14332.031250	-113.636658
14343.750000	-114.178535
14355.468750	-113.758461
14367.187500	-113.707756
14378.906250	-113.347229
14390.625000	-113.348709
14402.343750	-115.531906
14414.062500	-115.828636
14425.781250	-113.008514
14437.500000	-111.878387
14449.218750	-108.668793
14460.937500	-106.758354
14472.656250	-107.923378
14484.375000	-106.254417
14496.093750	-104.635445
14507.812500	-107.353722
14519.531250	-109.004761
14531.250000	-106.866234
14542.968750	-105.458755
14554.687500	-101.504150
14566.406250	-101.274178
14578.125000	-104.415001
14589.843750	-106.269562
14601.562500	-108.511505
14613.281250	-109.354614
14625.000000	-110.909309
14636.718750	-112.408531
14648.437500	-112.595261
14660.156250	-113.617470
14671.875000	-114.188858
14683.593750	-113.515854
14695.312500	-113.364304
14707.031250	-114.984169
14718.750000	-115.859520
14730.468750	-115.254768
14742.187500	-115.755714
14753.906250	-115.657135
14765.625000	-116.188606
14777.343750	-116.867744
14789.062500	-115.917252
14800.781250	-117.201424
14812.500000	-117.420883
14824.218750	-116.355621
14835.937500	-116.560654
14847.656250	-116.397911
14859.375000	-115.803635
14871.093750	-115.411530
14882.812500	-115.673820
14894.531250	-117.880814
14906.250000	-118.368172
14917.968750	-117.941978
14929.687500	-117.646133
14941.406250	-118.047813
14953.125000	-118.640327
14964.843750	-116.616463
14976.562500	-113.855652
14988.281250	-115.227333
15000.000000	-116.186172
15011.718750	-115.822517
15023.437500	-115.805008
15035.156250	-114.709587
15046.875000	-112.704376
15058.593750	-113.398369
15070.312500	-116.132568
15082.031250	-115.431473
15093.750000	-113.670845
15105.468750	-114.540657
15117.187500	-114.904144
15128.906250	-116.026634
15140.625000	-116.636475
15152.343750	-116.517052
15164.062500	-118.549957
15175.781250	-119.179451
15187.500000	-118.534576
15199.218750	-118.071640
15210.937500	-117.165009
15222.656250	-116.430038
15234.375000	-116.156174
15246.093750	-116.579910
15257.812500	-117.562729
15269.531250	-118.939377
15281.250000	-119.242119
15292.968750	-118.022697
15304.687500	-116.876724
15316.406250	-117.598869
15328.125000	-118.061028
15339.843750	-118.064598
15351.562500	-117.368011
15363.281250	-116.516548
15375.000000	-117.725601
15386.718750	-117.838684
15398.437500	-117.262856
15410.156250	-117.923759
15421.875000	-116.716064
15433.593750	-114.881500
15445.312500	-116.463326
15457.031250	-117.438248
15468.750000	-117.416916
15480.468750	-118.218605
15492.187500	-117.422798
15503.906250	-116.964272
15515.625000	-116.557655
15527.343750	-116.789162
15539.062500	-117.787750
15550.781250	-118.607430
15562.500000	-117.038818
15574.218750	-116.436829
15585.937500	-116.510178
15597.656250	-116.954773
15609.375000	-117.423737
15621.093750	-116.555176
15632.812500	-115.531555
15644.531250	-116.410660
15656.250000	-116.879410
15667.968750	-117.425575
15679.687500	-117.394447
15691.406250	-117.417061
15703.125000	-117.072723
15714.843750	-116.638695
15726.562500	-116.831070
15738.281250	-116.246193
15750.000000	-115.595161
15761.718750	-115.416878
15773.437500	-112.160454
15785.156250	-110.895638
15796.875000	-110.454651
15808.593750	-109.602531
15820.312500	-110.583977
15832.031250	-111.524384
15843.750000	-113.514542
15855.468750	-114.495438
15867.187500	-108.520470
15878.906250	-105.967873
15890.625000	-105.035782
15902.343750	-106.578461
15914.062500	-111.241188
15925.781250	-115.535088
15937.500000	-114.521690
15949.218750	-114.549706
15960.937500	-112.818573
15972.656250	-111.801689
15984.375000	-114.207138
15996.093750	-113.782669
16007.812500	-112.575714
16019.531250	-114.119186
16031.250000	-113.856117
16042.968750	-113.990891
16054.687500	-113.178421
16066.406250	-113.012383
16078.125000	-113.510597
16089.843750	-111.930054
16101.562500	-110.453781
16113.281250	-114.228760
16125.000000	-117.726463
16136.718750	-118.596115
16148.437500	-117.887535
16160.156250	-117.931602
16171.875000	-117.483047
16183.593750	-116.609062
16195.312500	-117.017914
16207.031250	-117.383530
16218.750000	-118.646004
16230.468750	-119.022530
16242.187500	-117.517876
16253.906250	-116.692101
16265.625000	-116.551605
16277.343750	-117.381844
16289.062500	-118.283745
16300.781250	-117.004639
16312.500000	-115.573570
16324.218750	-116.292427
16335.937500	-117.242973
16347.656250	-117.235359
16359.375000	-117.654472
16371.093750	-117.249313
16382.812500	-116.196495
16394.531250	-117.265228
16406.250000	-118.391319
16417.968750	-117.868942
16429.687500	-117.941582
16441.406250	-119.113441
16453.125000	-119.000374
16464.843750	-119.013672
16476.562500	-118.134850
16488.281250	-117.659279
16500.000000	-116.184555
16511.718750	-116.162193
16523.437500	-117.649246
16535.156250	-117.926399
16546.875000	-118.053856
16558.593750	-118.067772
16570.312500	-116.900780
16582.031250	-116.984894
16593.750000	-116.730690
16605.468750	-117.280647
16617.187500	-118.787254
16628.906250	-118.826164
16640.625000	-118.473434
16652.343750	-118.459679
16664.062500	-118.809151
16675.781250	-118.870926
16687.500000	-118.730934
16699.218750	-119.054688
16710.937500	-118.956551
16722.656250	-118.428833
16734.375000	-117.565201
16746.093750	-117.665695
16757.812500	-118.140282
16769.531250	-117.736671
16781.250000	-117.632423
16792.968750	-118.302589
16804.687500	-118.491035
16816.406250	-117.999519
16828.125000	-117.743370
16839.843750	-118.428230
16851.562500	-119.418663
16863.281250	-118.118294
16875.000000	-116.872513
16886.718750	-117.809273
16898.437500	-119.361404
16910.156250	-117.790466
16921.875000	-116.819527
16933.593750	-115.896408
16945.312500	-115.318726
16957.031250	-115.827301
16968.750000	-115.877670
16980.468750	-116.343948
16992.187500	-117.980949
17003.906250	-118.942596
17015.625000	-118.805542
17027.343750	-117.331520
17039.062500	-116.668793
17050.781250	-116.901596
17062.500000	-115.939415
17074.218750	-116.446754
17085.937500	-115.001572
17097.656250	-115.706779
17109.375000	-114.514801
17121.093750	-116.182129
17132.812500	-115.339539
17144.531250	-114.798843
17156.250000	-114.074280
17167.968750	-111.251450
17179.687500	-107.870743
17191.406250	-109.227585
17203.125000	-110.373589
17214.843750	-113.486877
17226.562500	-116.970078
17238.281250	-116.605904
17250.000000	-116.065773
17261.718750	-113.354202
17273.437500	-111.797493
17285.156250	-113.796410
17296.875000	-114.669701
17308.593750	-114.798920
17320.312500	-115.513420
17332.031250	-116.738480
17343.750000	-118.004593
17355.468750	-118.747040
17367.187500	-119.442169
17378.906250	-120.216919
17390.625000	-119.671295
17402.343750	-118.842148
17414.062500	-118.246239
17425.781250	-118.745781
17437.500000	-119.830956
17449.218750	-119.233238
17460.937500	-118.613777
17472.656250	-117.245682
17484.375000	-117.006523
17496.093750	-117.500862
17507.812500	-117.746109
17519.531250	-119.127029
17531.250000	-119.659279
17542.968750	-117.754059
17554.687500	-117.733902
17566.406250	-118.955574
17578.125000	-119.512062
17589.843750	-119.497993
17601.562500	-118.870499
17613.281250	-117.847755
17625.000000	-118.231667
17636.718750	-118.947578
17648.437500	-119.542450
17660.156250	-119.559181
17671.875000	-119.225037
17683.593750	-117.974411
17695.312500	-118.215050
17707.031250	-117.607498
17718.750000	-117.763000
17730.468750	-117.786087
17742.187500	-117.081635
17753.906250	-117.490677
17765.625000	-118.123070
17777.343750	-119.806320
17789.062500	-119.776054
17800.781250	-119.503708
17812.500000	-118.946663
17824.218750	-117.954185
17835.937500	-117.792419
17847.656250	-117.803070
17859.375000	-118.407127
17871.093750	-119.365707
17882.812500	-118.269463
17894.531250	-118.330910
17906.250000	-118.821518
17917.968750	-118.509712
17929.687500	-118.543724
17941.406250	-118.026756
17953.125000	-118.108246
17964.843750	-117.881416
17976.562500	-117.553909
17988.281250	-118.084122
18000.000000	-117.658371
18011.718750	-116.944809
18023.437500	-116.372307
18035.156250	-117.418304
18046.875000	-117.316284
18058.593750	-117.442406
18070.312500	-118.117325
18082.031250	-117.888199
18093.750000	-117.026489
18105.468750	-116.998291
18117.187500	-118.157158
18128.906250	-118.729652
18140.625000	-118.788818
18152.343750	-118.814735
18164.062500	-119.405731
18175.781250	-118.841408
18187.500000	-117.629677
18199.218750	-116.784225
18210.937500	-116.777740
18222.656250	-117.122360
18234.375000	-117.844040
18246.093750	-118.716179
18257.812500	-119.204086
18269.531250	-119.287300
18281.250000	-119.285645
18292.968750	-119.257149
18304.687500	-118.813919
18316.406250	-118.918625
18328.125000	-119.139954
18339.843750	-118.147568
18351.562500	-118.707985
18363.281250	-118.799202
18375.000000	-118.888245
18386.718750	-118.381386
18398.437500	-118.772301
18410.156250	-118.335045
18421.875000	-118.737129
18433.593750	-117.984047
18445.312500	-117.649071
18457.031250	-116.966309
18468.750000	-116.547646
18480.468750	-116.339882
18492.187500	-116.198120
18503.906250	-116.848434
18515.625000	-115.298981
18527.343750	-114.233330
18539.062500	-113.663528
18550.781250	-114.021606
18562.500000	-113.901787
18574.218750	-113.263863
18585.937500	-113.847229
18597.656250	-110.068039
18609.375000	-103.356590
18621.093750	-102.693214
18632.812500	-110.360512
18644.531250	-114.139717
18656.250000	-112.822853
18667.968750	-110.325989
18679.687500	-106.694397
18691.406250	-104.197144
18703.125000	-104.969406
18714.843750	-105.011803
18726.562500	-104.242706
18738.281250	-108.618500
18750.000000	-116.306793
18761.718750	-114.236282
18773.437500	-114.024574
18785.156250	-117.142593
18796.875000	-117.915924
18808.593750	-117.261566
18820.312500	-117.381859
18832.031250	-118.065804
18843.750000	-118.898216
18855.468750	-118.333466
18867.187500	-118.104782
18878.906250	-118.489784
18890.625000	-119.122673
18902.343750	-119.227020
18914.062500	-119.072800
18925.781250	-118.216576
18937.500000	-119.432274
18949.218750	-119.459747
18960.937500	-117.947716
18972.656250	-118.811775
18984.375000	-119.100487
18996.093750	-119.063530
19007.812500	-118.567635
19019.531250	-118.868240
19031.250000	-118.385025
19042.968750	-119.315422
19054.687500	-119.558083
19066.406250	-119.457771
19078.125000	-118.462112
19089.843750	-118.271683
19101.562500	-118.328392
19113.281250	-117.792679
19125.000000	-119.124580
19136.718750	-119.691292
19148.437500	-119.376152
19160.156250	-119.103661
19171.875000	-118.474205
19183.593750	-117.131760
19195.312500	-116.305641
19207.031250	-116.293213
19218.750000	-115.378403
19230.468750	-116.151497
19242.187500	-117.060974
19253.906250	-116.520790
19265.625000	-116.518501
19277.343750	-116.289619
19289.062500	-117.427895
19300.781250	-118.461494
19312.500000	-118.481071
19324.218750	-118.407974
19335.937500	-116.952393
19347.656250	-116.780975
19359.375000	-116.716087
19371.093750	-118.385887
19382.812500	-119.204399
19394.531250	-118.398109
19406.250000	-117.770828
19417.968750	-118.865692
19429.687500	-118.859451
19441.406250	-118.174339
19453.125000	-118.200645
19464.843750	-118.656769
19476.562500	-119.057579
19488.281250	-117.861946
19500.000000	-116.788841
19511.718750	-117.575600
19523.437500	-118.475822
19535.156250	-119.042809
19546.875000	-118.161026
19558.593750	-118.836815
19570.312500	-118.486084
19582.031250	-118.894203
19593.750000	-118.895081
19605.468750	-117.729538
19617.187500	-118.062325
19628.906250	-118.493637
19640.625000	-118.887230
19652.343750	-118.964645
19664.062500	-119.496361
19675.781250	-119.467987
19687.500000	-118.960884
19699.218750	-118.722847
19710.937500	-118.544724
19722.656250	-118.502136
19734.375000	-118.723053
19746.093750	-118.868004
19757.812500	-119.277908
19769.531250	-120.743095
19781.250000	-120.075333
19792.968750	-119.172302
19804.687500	-118.965179
19816.406250	-119.272736
19828.125000	-118.478134
19839.843750	-118.032150
19851.562500	-117.707146
19863.281250	-118.384369
19875.000000	-119.552597
19886.718750	-119.302895
19898.437500	-119.537941
19910.156250	-118.870049
19921.875000	-118.907593
19933.593750	-120.055252
19945.312500	-119.435097
19957.031250	-117.922508
19968.750000	-116.964561
19980.468750	-117.576584
19992.187500	-117.686234
20003.906250	-117.561134
20015.625000	-114.283241
20027.343750	-112.967758
20039.062500	-111.836182
20050.781250	-111.162529
20062.500000	-110.953979
20074.218750	-112.342125
20085.937500	-114.458015
20097.656250	-118.065155
20109.375000	-118.475410
20121.093750	-116.975090
20132.812500	-113.215240
20144.531250	-112.771355
20156.250000	-114.569939
20167.968750	-113.395439
20179.687500	-112.716141
20191.406250	-114.125023
20203.125000	-116.055000
20214.843750	-117.076828
20226.562500	-118.209091
20238.281250	-118.694489
20250.000000	-118.859108
20261.718750	-119.496704
20273.437500	-118.505424
20285.156250	-118.038826
20296.875000	-118.079117
20308.593750	-118.157509
20320.312500	-119.011406
20332.031250	-118.272400
20343.750000	-118.417984
20355.468750	-118.191406
20367.187500	-118.738792
20378.906250	-119.223328
20390.625000	-118.586533
20402.343750	-118.481430
20414.062500	-118.555939
20425.781250	-118.692924
20437.500000	-118.967995
20449.218750	-118.462456
20460.937500	-118.999214
20472.656250	-120.127075
20484.375000	-119.259575
20496.093750	-118.734818
20507.812500	-119.194939
20519.531250	-119.135040
20531.250000	-118.768242
20542.968750	-118.998749
20554.687500	-119.276253
20566.406250	-119.228584
20578.125000	-118.734741
20589.843750	-118.376389
20601.562500	-118.734161
20613.281250	-118.985687
20625.000000	-118.809402
20636.718750	-118.574890
20648.437500	-119.362068
20660.156250	-119.521111
20671.875000	-119.185356
20683.593750	-118.882751
20695.312500	-119.067940
20707.031250	-118.748810
20718.750000	-118.653160
20730.468750	-119.827377
20742.187500	-118.764229
20753.906250	-119.096321
20765.625000	-119.413177
20777.343750	-118.983177
20789.062500	-119.304741
20800.781250	-119.578430
20812.500000	-119.022713
20824.218750	-119.092949
20835.937500	-119.360458
20847.656250	-119.087379
20859.375000	-119.756622
20871.093750	-119.692291
20882.812500	-119.473244
20894.531250	-119.478340
20906.250000	-119.692879
20917.968750	-119.977692
20929.687500	-118.576385
20941.406250	-117.914276
20953.125000	-118.334961
20964.843750	-118.870979
20976.562500	-118.747505
20988.281250	-119.159256
21000.000000	-119.558945
21011.718750	-118.916374
21023.437500	-118.302979
21035.156250	-119.786705
21046.875000	-119.230858
21058.593750	-119.014191
21070.312500	-119.605370
21082.031250	-119.357468
21093.750000	-118.870560
21105.468750	-119.257820
21117.187500	-119.359245
21128.906250	-118.170433
21140.625000	-118.704155
21152.343750	-119.020813
21164.062500	-118.143303
21175.781250	-118.900711
21187.500000	-119.182831
21199.218750	-118.401291
21210.937500	-119.343643
21222.656250	-119.994522
21234.375000	-120.238419
21246.093750	-120.362892
21257.812500	-119.331749
21269.531250	-118.393127
21281.250000	-117.806259
21292.968750	-116.458946
21304.687500	-115.124413
21316.406250	-112.073425
21328.125000	-111.126602
21339.843750	-113.295692
21351.562500	-114.881630
21363.281250	-115.955315
21375.000000	-117.008644
21386.718750	-116.015938
21398.437500	-117.919418
21410.156250	-117.415932
21421.875000	-116.967468
21433.593750	-117.552704
21445.312500	-118.531410
21457.031250	-118.941498
21468.750000	-117.860336
21480.468750	-117.845482
21492.187500	-118.593086
21503.906250	-118.495598
21515.625000	-119.649178
21527.343750	-119.588615
21539.062500	-119.530708
21550.781250	-119.418045
21562.500000	-120.087044
21574.218750	-118.734207
21585.937500	-119.050079
21597.656250	-119.038414
21609.375000	-117.789818
21621.093750	-118.261200
21632.812500	-119.037636
21644.531250	-119.240509
21656.250000	-119.718803
21667.968750	-119.707825
21679.687500	-120.052376
21691.406250	-120.957756
21703.125000	-120.803398
21714.843750	-119.846085
21726.562500	-118.956703
21738.281250	-118.699593
21750.000000	-120.214455
21761.718750	-119.357002
21773.437500	-119.232269
21785.156250	-118.442619
21796.875000	-119.430237
21808.593750	-119.081596
21820.312500	-119.368088
21832.031250	-119.595596
21843.750000	-119.120865
21855.468750	-119.681694
21867.187500	-119.036240
21878.906250	-119.584801
21890.625000	-120.211899
21902.343750	-119.307442
21914.062500	-120.047180
21925.781250	-119.335495
21937.500000	-118.982086
21949.218750	-120.120956
21960.937500	-120.098122
21972.656250	-120.404488
21984.375000	-119.288284
21996.093750	-118.884628
22007.812500	-118.875916
22019.531250	-118.470688
22031.250000	-118.798302
22042.968750	-119.230759
22054.687500	-120.122086
22066.406250	-118.927971
22078.125000	-119.060738
22089.843750	-120.285027
22101.562500	-121.102943
22113.281250	-119.793320
22125.000000	-119.286659
22136.718750	-119.236305
22148.437500	-119.835808
22160.156250	-119.956528
22171.875000	-120.611115
22183.593750	-119.615921
22195.312500	-119.130241
22207.031250	-120.067459
22218.750000	-119.140999
22230.468750	-119.711952
22242.187500	-119.740234
22253.906250	-119.582893
22265.625000	-119.768959
22277.343750	-120.314079
22289.062500	-119.779221
22300.781250	-119.126633
22312.500000	-119.142525
22324.218750	-119.859825
22335.937500	-119.854134
22347.656250	-119.663277
22359.375000	-119.289551
22371.093750	-119.232292
22382.812500	-119.355202
22394.531250	-119.941521
22406.250000	-120.287888
22417.968750	-119.787773
22429.687500	-119.909889
22441.406250	-119.878716
22453.125000	-120.183319
22464.843750	-120.451714
22476.562500	-119.847069
22488.281250	-119.348190
22500.000000	-119.983246
22511.718750	-120.449173
22523.437500	-120.127792
22535.156250	-121.016220
22546.875000	-120.246368
22558.593750	-120.452271
22570.312500	-119.619499
22582.031250	-119.394920
22593.750000	-119.734505
22605.468750	-120.882111
22617.187500	-120.644577
22628.906250	-120.452881
22640.625000	-120.934158
22652.343750	-120.838539
22664.062500	-120.318420
22675.781250	-120.859703
22687.500000	-121.394180
22699.218750	-121.192993
22710.937500	-120.880676
22722.656250	-120.728287
22734.375000	-120.857941
22746.093750	-121.341003
22757.812500	-122.536720
22769.531250	-122.172577
22781.250000	-121.715210
22792.968750	-121.531219
22804.687500	-121.848297
22816.406250	-122.666740
22828.125000	-123.562592
22839.843750	-123.807281
22851.562500	-123.827919
22863.281250	-124.410194
22875.000000	-124.050865
22886.718750	-124.209351
22898.437500	-125.869087
22910.156250	-126.140732
22921.875000	-126.365219
22933.593750	-125.978111
22945.312500	-126.553131
22957.031250	-126.161919
22968.750000	-125.778702
22980.468750	-126.997826
22992.187500	-127.044235
23003.906250	-127.607231
23015.625000	-128.169495
23027.343750	-128.886581
23039.062500	-128.970276
23050.781250	-129.257339
23062.500000	-129.457352
23074.218750	-129.304123
23085.937500	-130.467285
23097.656250	-131.648239
23109.375000	-132.026596
23121.093750	-132.651047
23132.812500	-133.658905
23144.531250	-133.313690
23156.250000	-133.837982
23167.968750	-134.371384
23179.687500	-135.674789
23191.406250	-137.956467
23203.125000	-138.472839
23214.843750	-138.051178
23226.562500	-137.376144
23238.281250	-139.027466
23250.000000	-139.713501
23261.718750	-140.744385
23273.437500	-140.873428
23285.156250	-141.151688
23296.875000	-142.163086
23308.593750	-143.600739
23320.312500	-144.638870
23332.031250	-144.727341
23343.750000	-144.609375
23355.468750	-145.086868
23367.187500	-146.220886
23378.906250	-147.835052
23390.625000	-149.235046
23402.343750	-151.041946
23414.062500	-150.805161
23425.781250	-151.191681
23437.500000	-152.476486
23449.218750	-153.735748
23460.937500	-154.361450
23472.656250	-155.905197
23484.375000	-159.139771
23496.093750	-160.721924
23507.812500	-161.026001
23519.531250	-161.530212
23531.250000	-163.594574
23542.968750	-164.034775
23554.687500	-164.656662
23566.406250	-166.431900
23578.125000	-168.236603
23589.843750	-170.152298
23601.562500	-170.360535
23613.281250	-170.274750
23625.000000	-171.992722
23636.718750	-172.143692
23648.437500	-172.346924
23660.156250	-172.864624
23671.875000	-173.734848
23683.593750	-173.403534
23695.312500	-173.120544
23707.031250	-173.726868
23718.750000	-173.199142
23730.468750	-174.406158
23742.187500	-173.935043
23753.906250	-173.639618
23765.625000	-173.892685
23777.343750	-175.231155
23789.062500	-175.356827
23800.781250	-173.241730
23812.500000	-174.042511
23824.218750	-174.725128
23835.937500	-175.188446
23847.656250	-174.197556
23859.375000	-173.973206
23871.093750	-174.699493
23882.812500	-174.417862
23894.531250	-173.951416
23906.250000	-173.898972
23917.968750	-174.745010
23929.687500	-175.449738
23941.406250	-175.337708
23953.125000	-174.416260
23964.843750	-174.360458
23976.562500	-174.265335
23988.281250	-174.584091
