주파수 (Hz)	레벨 (dB)
23.437500	-95.090919
46.875000	-83.024574
70.312500	-67.615341
93.750000	-60.048397
117.187500	-56.576607
140.625000	-52.495445
164.062500	-52.217331
187.500000	-51.369858
210.937500	-50.615791
234.375000	-49.784748
257.812500	-47.979755
281.250000	-50.375542
304.687500	-48.348259
328.125000	-48.702789
351.562500	-48.513363
375.000000	-47.905243
398.437500	-47.518974
421.875000	-50.988419
445.312500	-51.458340
468.750000	-48.130512
492.187500	-49.431992
515.625000	-47.172585
539.062500	-48.060104
562.500000	-53.147167
585.937500	-50.605862
609.375000	-45.794323
632.812500	-44.317501
656.250000	-49.793297
679.687500	-50.125370
703.125000	-47.940117
726.562500	-53.623459
750.000000	-59.681778
773.437500	-54.600307
796.875000	-54.074287
820.312500	-54.974968
843.750000	-55.244690
867.187500	-60.810738
890.625000	-62.117920
914.062500	-62.605087
937.500000	-60.728592
960.937500	-64.687408
984.375000	-60.188042
1007.812500	-61.906860
1031.250000	-59.902531
1054.687500	-56.744061
1078.125000	-62.040150
1101.562500	-65.142387
1125.000000	-67.308678
1148.437500	-64.831665
1171.875000	-54.494267
1195.312500	-54.739120
1218.750000	-62.176060
1242.187500	-53.524071
1265.625000	-54.127155
1289.062500	-63.020332
1312.500000	-58.043217
1335.937500	-59.388752
1359.375000	-67.825638
1382.812500	-62.824768
1406.250000	-58.334023
1429.687500	-62.644608
1453.125000	-68.159515
1476.562500	-65.137924
1500.000000	-65.650711
1523.437500	-70.782898
1546.875000	-66.035789
1570.312500	-57.820713
1593.750000	-57.898285
1617.187500	-68.729401
1640.625000	-69.565025
1664.062500	-62.687870
1687.500000	-64.170158
1710.937500	-73.543900
1734.375000	-73.305176
1757.812500	-69.105270
1781.250000	-66.446609
1804.687500	-71.992470
1828.125000	-72.544128
1851.562500	-67.698334
1875.000000	-64.558601
1898.437500	-65.391632
1921.875000	-74.607864
1945.312500	-75.437141
1968.750000	-68.120117
1992.187500	-66.188721
2015.625000	-71.224670
2039.062500	-76.545441
2062.500000	-74.469780
2085.937500	-68.507278
2109.375000	-65.305656
2132.812500	-67.925117
2156.250000	-76.104858
2179.687500	-76.796410
2203.125000	-72.462502
2226.562500	-72.792641
2250.000000	-74.312920
2273.437500	-79.559242
2296.875000	-81.749794
2320.312500	-78.073700
2343.750000	-75.391891
2367.187500	-69.105423
2390.625000	-68.786453
2414.062500	-77.125313
2437.500000	-81.937721
2460.937500	-79.612068
2484.375000	-75.467094
2507.812500	-68.212402
2531.250000	-66.351440
2554.687500	-74.103081
2578.125000	-80.922783
2601.562500	-82.026237
2625.000000	-79.377144
2648.437500	-70.653931
2671.875000	-69.441376
2695.312500	-76.879677
2718.750000	-84.992569
2742.187500	-82.178558
2765.625000	-78.344154
2789.062500	-75.104103
2812.500000	-75.798073
2835.937500	-72.911575
2859.375000	-75.546799
2882.812500	-82.040947
2906.250000	-86.223457
2929.687500	-82.355698
2953.125000	-76.722824
2976.562500	-76.540161
3000.000000	-76.275742
3023.437500	-76.045166
3046.875000	-83.259193
3070.312500	-86.617607
3093.750000	-78.142006
3117.187500	-78.986992
3140.625000	-80.468300
3164.062500	-73.608414
3187.500000	-71.254601
3210.937500	-73.835579
3234.375000	-80.090469
3257.812500	-87.510651
3281.250000	-82.083450
3304.687500	-81.672203
3328.125000	-82.486786
3351.562500	-82.657837
3375.000000	-80.548088
3398.437500	-80.039078
3421.875000	-82.074760
3445.312500	-87.991356
3468.750000	-87.031036
3492.187500	-84.627731
3515.625000	-84.793221
3539.062500	-83.453407
3562.500000	-82.812172
3585.937500	-83.674652
3609.375000	-83.504707
3632.812500	-86.470947
3656.250000	-91.376816
3679.687500	-89.963959
3703.125000	-86.312492
3726.562500	-86.546043
3750.000000	-81.999481
3773.437500	-78.201508
3796.875000	-81.356201
3820.312500	-81.050545
3843.750000	-80.060173
3867.187500	-81.868835
3890.625000	-89.481689
3914.062500	-94.798309
3937.500000	-92.557625
3960.937500	-90.819183
3984.375000	-90.424179
4007.812500	-88.384514
4031.250000	-88.345276
4054.687500	-85.849564
4078.125000	-85.998848
4101.562500	-88.534538
4125.000000	-91.137993
4148.437500	-93.852875
4171.875000	-91.649567
4195.312500	-87.124687
4218.750000	-86.314384
4242.187500	-81.426331
4265.625000	-83.356796
4289.062500	-87.210159
4312.500000	-84.744110
4335.937500	-83.247185
4359.375000	-84.657448
4382.812500	-90.289787
4406.250000	-96.908943
4429.687500	-97.304306
4453.125000	-96.466179
4476.562500	-86.904144
4500.000000	-83.381790
4523.437500	-88.273079
4546.875000	-91.603149
4570.312500	-91.584099
4593.750000	-93.065163
4617.187500	-95.054573
4640.625000	-91.775475
4664.062500	-90.077271
4687.500000	-90.257149
4710.937500	-93.384926
4734.375000	-92.179665
4757.812500	-90.625847
4781.250000	-92.536774
4804.687500	-95.119896
4828.125000	-91.639694
4851.562500	-89.677055
4875.000000	-91.280426
4898.437500	-92.309952
4921.875000	-91.285210
4945.312500	-92.482727
4968.750000	-99.464912
4992.187500	-102.518745
5015.625000	-99.561111
5039.062500	-95.258553
5062.500000	-92.153503
5085.937500	-92.996429
5109.375000	-95.817039
5132.812500	-92.520660
5156.250000	-88.943512
5179.687500	-88.490349
5203.125000	-94.586006
5226.562500	-94.479797
5250.000000	-88.367432
5273.437500	-91.072136
5296.875000	-99.808777
5320.312500	-101.680298
5343.750000	-98.578362
5367.187500	-94.975151
5390.625000	-91.951569
5414.062500	-89.248917
5437.500000	-91.695412
5460.937500	-98.072906
5484.375000	-97.430923
5507.812500	-95.458687
5531.250000	-93.942032
5554.687500	-91.911644
5578.125000	-94.458656
5601.562500	-95.939110
5625.000000	-94.020996
5648.437500	-99.866257
5671.875000	-97.950119
5695.312500	-94.569435
5718.750000	-90.750153
5742.187500	-87.820267
5765.625000	-90.900002
5789.062500	-99.218925
5812.500000	-94.751213
5835.937500	-90.168945
5859.375000	-91.566147
5882.812500	-92.588669
5906.250000	-91.869217
5929.687500	-95.382637
5953.125000	-97.301674
5976.562500	-99.246620
6000.000000	-102.682823
6023.437500	-106.484451
6046.875000	-105.533653
6070.312500	-95.115837
6093.750000	-91.426659
6117.187500	-93.026695
6140.625000	-94.717690
6164.062500	-93.395279
6187.500000	-91.581635
6210.937500	-94.218071
6234.375000	-99.693405
6257.812500	-104.221962
6281.250000	-104.547462
6304.687500	-102.810913
6328.125000	-105.239777
6351.562500	-103.400215
6375.000000	-99.645767
6398.437500	-100.717506
6421.875000	-106.831985
6445.312500	-109.395927
6468.750000	-104.749115
6492.187500	-101.402161
6515.625000	-100.892708
6539.062500	-103.388641
6562.500000	-103.754425
6585.937500	-98.221138
6609.375000	-94.875290
6632.812500	-97.854034
6656.250000	-103.009224
6679.687500	-97.311638
6703.125000	-98.415627
6726.562500	-100.275879
6750.000000	-101.589020
6773.437500	-102.268311
6796.875000	-102.134827
6820.312500	-98.837036
6843.750000	-101.576378
6867.187500	-108.317970
6890.625000	-107.442017
6914.062500	-105.011475
6937.500000	-104.746750
6960.937500	-103.676376
6984.375000	-100.489571
7007.812500	-101.031067
7031.250000	-98.227417
7054.687500	-101.650352
7078.125000	-105.844772
7101.562500	-104.961311
7125.000000	-106.138023
7148.437500	-107.193848
7171.875000	-110.789169
7195.312500	-106.325249
7218.750000	-105.049812
7242.187500	-109.644821
7265.625000	-107.795876
7289.062500	-103.827934
7312.500000	-104.049248
7335.937500	-105.504013
7359.375000	-105.033279
7382.812500	-105.921593
7406.250000	-104.093636
7429.687500	-106.114555
7453.125000	-105.951439
7476.562500	-102.669243
7500.000000	-101.587761
7523.437500	-99.957687
7546.875000	-103.058464
7570.312500	-104.829590
7593.750000	-105.865776
7617.187500	-105.059418
7640.625000	-110.239456
7664.062500	-113.181175
7687.500000	-113.131401
7710.937500	-111.479584
7734.375000	-109.851273
7757.812500	-108.707024
7781.250000	-107.587280
7804.687500	-109.265411
7828.125000	-109.821518
7851.562500	-108.127365
7875.000000	-108.540596
7898.437500	-110.303062
7921.875000	-108.583832
7945.312500	-107.456505
7968.750000	-105.169601
7992.187500	-102.161644
8015.625000	-102.108177
8039.062500	-107.935951
8062.500000	-110.715012
8085.937500	-107.492828
8109.375000	-106.836357
8132.812500	-112.000389
8156.250000	-114.370674
8179.687500	-113.993095
8203.125000	-113.510162
8226.562500	-115.180611
8250.000000	-114.335068
8273.437500	-113.359573
8296.875000	-112.723282
8320.312500	-104.876343
8343.750000	-103.527252
8367.187500	-108.650070
8390.625000	-112.357880
8414.062500	-111.563293
8437.500000	-106.765678
8460.937500	-104.775620
8484.375000	-106.990936
8507.812500	-109.176720
8531.250000	-110.213013
8554.687500	-113.555199
8578.125000	-114.558434
8601.562500	-114.917892
8625.000000	-115.588181
8648.437500	-116.163010
8671.875000	-116.319221
8695.312500	-114.667931
8718.750000	-113.731682
8742.187500	-111.683556
8765.625000	-110.889313
8789.062500	-112.357918
8812.500000	-114.973045
8835.937500	-115.398361
8859.375000	-113.824669
8882.812500	-111.618233
8906.250000	-111.503464
8929.687500	-113.153145
8953.125000	-114.076576
8976.562500	-114.360832
9000.000000	-106.972565
9023.437500	-103.364090
9046.875000	-105.896591
9070.312500	-109.506233
9093.750000	-109.481483
9117.187500	-109.420616
9140.625000	-113.221611
9164.062500	-116.251816
9187.500000	-114.695496
9210.937500	-114.105141
9234.375000	-115.055893
9257.812500	-116.957779
9281.250000	-117.732254
9304.687500	-117.493019
9328.125000	-117.078835
9351.562500	-117.511765
9375.000000	-114.831108
9398.437500	-110.925667
9421.875000	-109.177032
9445.312500	-110.220520
9468.750000	-112.302071
9492.187500	-112.932487
9515.625000	-115.141983
9539.062500	-118.397369
9562.500000	-116.732513
9585.937500	-114.986984
9609.375000	-115.209610
9632.812500	-115.495850
9656.250000	-115.544350
9679.687500	-113.484352
9703.125000	-112.689674
9726.562500	-114.791649
9750.000000	-115.945366
9773.437500	-115.419434
9796.875000	-115.946198
9820.312500	-116.892937
9843.750000	-116.351936
9867.187500	-116.472176
9890.625000	-115.001686
9914.062500	-116.930481
9937.500000	-115.559547
9960.937500	-116.885490
9984.375000	-115.853104
10007.812500	-113.499260
10031.250000	-111.235077
10054.687500	-109.713684
10078.125000	-109.354523
10101.562500	-112.412529
10125.000000	-116.500458
10148.437500	-116.573158
10171.875000	-115.972450
10195.312500	-115.308601
10218.750000	-114.661469
10242.187500	-115.372002
10265.625000	-116.053459
10289.062500	-115.869728
10312.500000	-114.981949
10335.937500	-113.849915
10359.375000	-111.761688
10382.812500	-112.381149
10406.250000	-106.568253
10429.687500	-104.747070
10453.125000	-107.001152
10476.562500	-112.183243
10500.000000	-116.325714
10523.437500	-115.885300
10546.875000	-117.712914
10570.312500	-120.203178
10593.750000	-121.744171
10617.187500	-121.763184
10640.625000	-121.206001
10664.062500	-121.047691
10687.500000	-120.933487
10710.937500	-121.169861
10734.375000	-121.248665
10757.812500	-120.287323
10781.250000	-119.399498
10804.687500	-119.377296
10828.125000	-119.297363
10851.562500	-121.317535
10875.000000	-119.462685
10898.437500	-117.420853
10921.875000	-118.294228
10945.312500	-118.241684
10968.750000	-117.388489
10992.187500	-119.907173
11015.625000	-121.838448
11039.062500	-121.543854
11062.500000	-122.066162
11085.937500	-122.044670
11109.375000	-118.940117
11132.812500	-115.359245
11156.250000	-111.826874
11179.687500	-112.314743
11203.125000	-111.817459
11226.562500	-112.344139
11250.000000	-116.107216
11273.437500	-117.010887
11296.875000	-119.308189
11320.312500	-118.920166
11343.750000	-118.566963
11367.187500	-118.151268
11390.625000	-117.879761
11414.062500	-117.715477
11437.500000	-113.823441
11460.937500	-116.872093
11484.375000	-122.748787
11507.812500	-123.069603
11531.250000	-123.538742
11554.687500	-123.972191
11578.125000	-123.950531
11601.562500	-123.964760
11625.000000	-123.876732
11648.437500	-123.421631
11671.875000	-122.759178
11695.312500	-122.373177
11718.750000	-119.714462
11742.187500	-118.612961
11765.625000	-119.747849
11789.062500	-119.309669
11812.500000	-121.009964
11835.937500	-123.340767
11859.375000	-123.724945
11882.812500	-122.572655
11906.250000	-122.329453
11929.687500	-123.361343
11953.125000	-124.617073
11976.562500	-125.391876
12000.000000	-125.338737
12023.437500	-124.345383
12046.875000	-122.921341
12070.312500	-123.223160
12093.750000	-123.281326
12117.187500	-123.940590
12140.625000	-124.321999
12164.062500	-123.209969
12187.500000	-122.869507
12210.937500	-122.297012
12234.375000	-118.477562
12257.812500	-117.616333
12281.250000	-122.119247
12304.687500	-120.885666
12328.125000	-122.564804
12351.562500	-123.601219
12375.000000	-121.990379
12398.437500	-122.863213
12421.875000	-124.440292
12445.312500	-125.083099
12468.750000	-125.650963
12492.187500	-125.833267
12515.625000	-125.631065
12539.062500	-125.455009
12562.500000	-125.536201
12585.937500	-126.197250
12609.375000	-126.071838
12632.812500	-125.273743
12656.250000	-124.589027
12679.687500	-124.265381
12703.125000	-124.848396
12726.562500	-124.683319
12750.000000	-124.681129
12773.437500	-125.085052
12796.875000	-125.268982
12820.312500	-124.767738
12843.750000	-125.531471
12867.187500	-126.071922
12890.625000	-125.924744
12914.062500	-126.241798
12937.500000	-126.233963
12960.937500	-125.262398
12984.375000	-125.948715
13007.812500	-126.265549
13031.250000	-126.186653
13054.687500	-126.268616
13078.125000	-126.445694
13101.562500	-126.153152
13125.000000	-125.572746
13148.437500	-125.720001
13171.875000	-125.337135
13195.312500	-124.702293
13218.750000	-125.356506
13242.187500	-125.487221
13265.625000	-126.085548
13289.062500	-126.828941
13312.500000	-126.635635
13335.937500	-125.829109
13359.375000	-125.232185
13382.812500	-124.768257
13406.250000	-124.373489
13429.687500	-124.367470
13453.125000	-122.444130
13476.562500	-117.907364
13500.000000	-116.689568
13523.437500	-116.973236
13546.875000	-121.009377
13570.312500	-124.773987
13593.750000	-125.855804
13617.187500	-125.125755
13640.625000	-123.689072
13664.062500	-123.602631
13687.500000	-124.459282
13710.937500	-125.472336
13734.375000	-126.464035
13757.812500	-126.750259
13781.250000	-126.973495
13804.687500	-126.958542
13828.125000	-127.256859
13851.562500	-126.926208
13875.000000	-126.787056
13898.437500	-126.519440
13921.875000	-126.495522
13945.312500	-126.617378
13968.750000	-126.434853
13992.187500	-126.143448
14015.625000	-125.855385
14039.062500	-125.378227
14062.500000	-125.979568
14085.937500	-126.089096
14109.375000	-125.732048
14132.812500	-126.231819
14156.250000	-126.564598
14179.687500	-126.221130
14203.125000	-126.381653
14226.562500	-127.106483
14250.000000	-127.335373
14273.437500	-127.318306
14296.875000	-127.427368
14320.312500	-127.426025
14343.750000	-126.899216
14367.187500	-126.529068
14390.625000	-126.830521
14414.062500	-127.392815
14437.500000	-127.583702
14460.937500	-127.710625
14484.375000	-127.779404
14507.812500	-127.506401
14531.250000	-127.343552
14554.687500	-127.358574
14578.125000	-127.426170
14601.562500	-127.481544
14625.000000	-126.979660
14648.437500	-126.437210
14671.875000	-126.195236
14695.312500	-126.093803
14718.750000	-125.343430
14742.187500	-124.066216
14765.625000	-125.645935
14789.062500	-127.112198
14812.500000	-127.016258
14835.937500	-127.451591
14859.375000	-127.785088
14882.812500	-127.540192
14906.250000	-127.409843
14929.687500	-127.676201
14953.125000	-127.583725
14976.562500	-127.522934
15000.000000	-127.596817
15023.437500	-127.422073
15046.875000	-127.170258
15070.312500	-127.446411
15093.750000	-127.869728
15117.187500	-127.899666
15140.625000	-127.895103
15164.062500	-127.884834
15187.500000	-127.527382
15210.937500	-127.335793
15234.375000	-127.685585
15257.812500	-128.031326
15281.250000	-127.973839
15304.687500	-127.778572
15328.125000	-127.755287
15351.562500	-128.126678
15375.000000	-128.008621
15398.437500	-127.730400
15421.875000	-127.703362
15445.312500	-127.683296
15468.750000	-127.530640
15492.187500	-127.687370
15515.625000	-127.837479
15539.062500	-127.997482
15562.500000	-127.919029
15585.937500	-127.615120
15609.375000	-127.461441
15632.812500	-127.659904
15656.250000	-127.917168
15679.687500	-127.921280
15703.125000	-127.837776
15726.562500	-127.714752
15750.000000	-127.835892
15773.437500	-127.784531
15796.875000	-127.595978
15820.312500	-127.701485
15843.750000	-127.638641
15867.187500	-127.477760
15890.625000	-127.232666
15914.062500	-127.023285
15937.500000	-126.987846
15960.937500	-125.979469
15984.375000	-125.943787
16007.812500	-126.552963
16031.250000	-127.358994
16054.687500	-127.631706
16078.125000	-127.900269
16101.562500	-127.952354
16125.000000	-128.009384
16148.437500	-128.167007
16171.875000	-128.241241
16195.312500	-128.265747
16218.750000	-128.188568
16242.187500	-128.063400
16265.625000	-128.112747
16289.062500	-128.049911
16312.500000	-127.988861
16335.937500	-128.019836
16359.375000	-128.015198
16382.812500	-128.016342
16406.250000	-128.098297
16429.687500	-128.146973
16453.125000	-128.227432
16476.562500	-128.213043
16500.000000	-128.035538
16523.437500	-127.980721
16546.875000	-128.264877
16570.312500	-128.332169
16593.750000	-128.278214
16617.187500	-128.067078
16640.625000	-128.001511
16664.062500	-128.240555
16687.500000	-128.300827
16710.937500	-128.330124
16734.375000	-128.370361
16757.812500	-128.294403
16781.250000	-128.181290
16804.687500	-128.153824
16828.125000	-128.194656
16851.562500	-128.249329
16875.000000	-128.303329
16898.437500	-128.237366
16921.875000	-128.200836
16945.312500	-128.163467
16968.750000	-127.532875
16992.187500	-127.713539
17015.625000	-128.268524
17039.062500	-127.913025
17062.500000	-128.016373
17085.937500	-128.298050
17109.375000	-128.356445
17132.812500	-128.293365
17156.250000	-128.193054
17179.687500	-128.206619
17203.125000	-128.054489
17226.562500	-127.944305
17250.000000	-127.631790
17273.437500	-127.173286
17296.875000	-127.519737
17320.312500	-127.924400
17343.750000	-128.145096
17367.187500	-128.255569
17390.625000	-128.171173
17414.062500	-128.352158
17437.500000	-128.365234
17460.937500	-128.266068
17484.375000	-128.281204
17507.812500	-128.404099
17531.250000	-128.413910
17554.687500	-128.341766
17578.125000	-128.359985
17601.562500	-128.374283
17625.000000	-128.400513
17648.437500	-128.440506
17671.875000	-128.401031
17695.312500	-128.319916
17718.750000	-128.410156
17742.187500	-128.364792
17765.625000	-128.281265
17789.062500	-128.268387
17812.500000	-128.367432
17835.937500	-128.450638
17859.375000	-128.448471
17882.812500	-128.434128
17906.250000	-128.427261
17929.687500	-128.389481
17953.125000	-128.305588
17976.562500	-128.321777
18000.000000	-128.406479
18023.437500	-128.407318
18046.875000	-128.359894
18070.312500	-128.329041
18093.750000	-128.330780
18117.187500	-128.372955
18140.625000	-128.424942
18164.062500	-128.369110
18187.500000	-128.418808
18210.937500	-128.352966
18234.375000	-128.369904
18257.812500	-128.387756
18281.250000	-128.387024
18304.687500	-128.425476
18328.125000	-128.393112
18351.562500	-128.391510
18375.000000	-128.361099
18398.437500	-128.310989
18421.875000	-128.393784
18445.312500	-128.414139
18468.750000	-128.385178
18492.187500	-128.406525
18515.625000	-128.352524
18539.062500	-128.189331
18562.500000	-127.972168
18585.937500	-127.763588
18609.375000	-127.905731
18632.812500	-127.923141
18656.250000	-127.901131
18679.687500	-128.180222
18703.125000	-128.352203
18726.562500	-128.334106
18750.000000	-128.370468
18773.437500	-128.415848
18796.875000	-128.419891
18820.312500	-128.405975
18843.750000	-128.465744
18867.187500	-128.377747
18890.625000	-128.346786
18914.062500	-128.429855
18937.500000	-128.353653
18960.937500	-128.287064
18984.375000	-128.351700
19007.812500	-128.341034
19031.250000	-128.330215
19054.687500	-128.319901
19078.125000	-128.367401
19101.562500	-128.452103
19125.000000	-128.415771
19148.437500	-128.300720
19171.875000	-128.304459
19195.312500	-128.236145
19218.750000	-128.250809
19242.187500	-128.179214
19265.625000	-127.727180
19289.062500	-127.935028
19312.500000	-128.279633
19335.937500	-128.242859
19359.375000	-128.265244
19382.812500	-128.252441
19406.250000	-128.203598
19429.687500	-128.240631
19453.125000	-128.318832
19476.562500	-128.398727
19500.000000	-128.265884
19523.437500	-128.216782
19546.875000	-128.168564
19570.312500	-128.244110
19593.750000	-128.298340
19617.187500	-128.298248
19640.625000	-128.450546
19664.062500	-128.410431
19687.500000	-128.339554
19710.937500	-128.365265
19734.375000	-128.443756
19757.812500	-128.463547
19781.250000	-128.471161
19804.687500	-128.408707
19828.125000	-128.437256
19851.562500	-128.489197
19875.000000	-128.408249
19898.437500	-128.399216
19921.875000	-128.456268
19945.312500	-128.368423
19968.750000	-128.302231
19992.187500	-128.439758
20015.625000	-128.454239
20039.062500	-128.460724
20062.500000	-128.432632
20085.937500	-128.408218
20109.375000	-128.299515
20132.812500	-128.036972
20156.250000	-128.365616
20179.687500	-128.493469
20203.125000	-128.512894
20226.562500	-128.522079
20250.000000	-128.595200
20273.437500	-128.486267
20296.875000	-128.384018
20320.312500	-128.478577
20343.750000	-128.552704
20367.187500	-128.573853
20390.625000	-128.457108
20414.062500	-128.489105
20437.500000	-128.521286
20460.937500	-128.499924
20484.375000	-128.428589
20507.812500	-128.452728
20531.250000	-128.522522
20554.687500	-128.519287
20578.125000	-128.486801
20601.562500	-128.378082
20625.000000	-128.277969
20648.437500	-128.377853
20671.875000	-128.358627
20695.312500	-128.368362
20718.750000	-128.428513
20742.187500	-128.489578
20765.625000	-128.433136
20789.062500	-128.376556
20812.500000	-128.421509
20835.937500	-128.506805
20859.375000	-128.444290
20882.812500	-128.407837
20906.250000	-128.411026
20929.687500	-128.475174
20953.125000	-128.461151
20976.562500	-128.434341
21000.000000	-128.421967
21023.437500	-128.426422
21046.875000	-128.463882
21070.312500	-128.369766
21093.750000	-128.385223
21117.187500	-128.417160
21140.625000	-128.336029
21164.062500	-128.334091
21187.500000	-128.423798
21210.937500	-128.355469
21234.375000	-128.398926
21257.812500	-128.328491
21281.250000	-128.300842
21304.687500	-128.444519
21328.125000	-128.499847
21351.562500	-128.393585
21375.000000	-128.402924
21398.437500	-128.449692
21421.875000	-128.466187
21445.312500	-128.434769
21468.750000	-128.390610
21492.187500	-128.329056
21515.625000	-128.308014
21539.062500	-128.287277
21562.500000	-128.350494
21585.937500	-128.383652
21609.375000	-128.419342
21632.812500	-128.333572
21656.250000	-128.423004
21679.687500	-128.542267
21703.125000	-128.466003
21726.562500	-128.423920
21750.000000	-128.418442
21773.437500	-128.459854
21796.875000	-128.493073
21820.312500	-128.420807
21843.750000	-128.346222
21867.187500	-128.349609
21890.625000	-128.316254
21914.062500	-128.385162
21937.500000	-128.482849
21960.937500	-128.472580
21984.375000	-128.370377
22007.812500	-128.358597
22031.250000	-128.325134
22054.687500	-128.335281
22078.125000	-128.330612
22101.562500	-128.383041
22125.000000	-128.415192
22148.437500	-128.466095
22171.875000	-128.469635
22195.312500	-128.471237
22218.750000	-128.525497
22242.187500	-128.519836
22265.625000	-128.465485
22289.062500	-128.374847
22312.500000	-128.339859
22335.937500	-128.422913
22359.375000	-128.481522
22382.812500	-128.414551
22406.250000	-128.382370
22429.687500	-128.453568
22453.125000	-128.355957
22476.562500	-128.323792
22500.000000	-128.509094
22523.437500	-128.351685
22546.875000	-128.275391
22570.312500	-128.235291
22593.750000	-128.304520
22617.187500	-128.312500
22640.625000	-128.287888
22664.062500	-128.388901
22687.500000	-128.389709
22710.937500	-128.376175
22734.375000	-128.342621
22757.812500	-128.336105
22781.250000	-128.368561
22804.687500	-128.300598
22828.125000	-128.375153
22851.562500	-128.351578
22875.000000	-128.274368
22898.437500	-128.311295
22921.875000	-128.359039
22945.312500	-128.418900
22968.750000	-128.391479
22992.187500	-128.407333
23015.625000	-128.343597
23039.062500	-128.296402
23062.500000	-128.430923
23085.937500	-128.447327
23109.375000	-128.406311
23132.812500	-128.398819
23156.250000	-128.320267
23179.687500	-128.289795
23203.125000	-128.245895
23226.562500	-128.221756
23250.000000	-128.311890
23273.437500	-128.308487
23296.875000	-128.337799
23320.312500	-128.418121
23343.750000	-128.396774
23367.187500	-128.314621
23390.625000	-128.409317
23414.062500	-128.420822
23437.500000	-128.446930
23460.937500	-128.394196
23484.375000	-128.416901
23507.812500	-128.459198
23531.250000	-128.427628
23554.687500	-128.400360
23578.125000	-128.409866
23601.562500	-128.363297
23625.000000	-128.334702
23648.437500	-128.333618
23671.875000	-128.285477
23695.312500	-128.310089
23718.750000	-128.388077
23742.187500	-128.426605
23765.625000	-128.419388
23789.062500	-128.342438
23812.500000	-128.254288
23835.937500	-128.249405
23859.375000	-128.309494
23882.812500	-128.332214
23906.250000	-128.322784
23929.687500	-128.342758
23953.125000	-128.304199
23976.562500	-128.298248
24000.000000	-128.379700
24023.437500	-128.326569
24046.875000	-128.309723
24070.312500	-128.327164
24093.750000	-128.309967
24117.187500	-128.296341
24140.625000	-128.291199
24164.062500	-128.407364
24187.500000	-128.321564
24210.937500	-128.259827
24234.375000	-128.307449
24257.812500	-128.287704
24281.250000	-128.265472
24304.687500	-128.212662
24328.125000	-128.276947
24351.562500	-128.286331
24375.000000	-128.316330
24398.437500	-128.308716
24421.875000	-128.274979
24445.312500	-128.328659
24468.750000	-128.334778
24492.187500	-128.369644
24515.625000	-128.324966
24539.062500	-128.314102
24562.500000	-128.376450
24585.937500	-128.331619
24609.375000	-128.273239
24632.812500	-128.255020
24656.250000	-128.312820
24679.687500	-128.214935
24703.125000	-128.260071
24726.562500	-128.294495
24750.000000	-128.303696
24773.437500	-128.348557
24796.875000	-128.266220
24820.312500	-128.311127
24843.750000	-128.347870
24867.187500	-128.310135
24890.625000	-128.300125
24914.062500	-128.270599
24937.500000	-128.317627
24960.937500	-128.255325
24984.375000	-128.303040
25007.812500	-128.339493
25031.250000	-128.319626
25054.687500	-128.267303
25078.125000	-128.296860
25101.562500	-128.289078
25125.000000	-128.299347
25148.437500	-128.252747
25171.875000	-128.227722
25195.312500	-128.314255
25218.750000	-128.324326
25242.187500	-128.298065
25265.625000	-128.304413
25289.062500	-128.299652
25312.500000	-128.320923
25335.937500	-128.211792
25359.375000	-128.273682
25382.812500	-128.285629
25406.250000	-128.243698
25429.687500	-128.256210
25453.125000	-128.203278
25476.562500	-128.234604
25500.000000	-128.279800
25523.437500	-128.303085
25546.875000	-128.201752
25570.312500	-128.253204
25593.750000	-128.357819
25617.187500	-128.355011
25640.625000	-128.319626
25664.062500	-128.335938
25687.500000	-128.336197
25710.937500	-128.246399
25734.375000	-128.226944
25757.812500	-128.348450
25781.250000	-128.346024
25804.687500	-128.255478
25828.125000	-128.159927
25851.562500	-128.233002
25875.000000	-128.207123
25898.437500	-128.228455
25921.875000	-128.224594
25945.312500	-128.187881
25968.750000	-128.226715
25992.187500	-128.180771
26015.625000	-128.297241
26039.062500	-128.284119
26062.500000	-128.169662
26085.937500	-128.218445
26109.375000	-128.203354
26132.812500	-128.150803
26156.250000	-128.238159
26179.687500	-128.254654
26203.125000	-128.277481
26226.562500	-128.170868
26250.000000	-128.243179
26273.437500	-128.290573
26296.875000	-128.182083
26320.312500	-128.133163
26343.750000	-128.213074
26367.187500	-128.332794
26390.625000	-128.325989
26414.062500	-128.190384
26437.500000	-128.193970
26460.937500	-128.200211
26484.375000	-128.249985
26507.812500	-128.324493
26531.250000	-128.255127
26554.687500	-128.217651
26578.125000	-128.267410
26601.562500	-128.292725
26625.000000	-128.311920
26648.437500	-128.264236
26671.875000	-128.161148
26695.312500	-128.209686
26718.750000	-128.263153
26742.187500	-128.348404
26765.625000	-128.307373
26789.062500	-128.270081
26812.500000	-128.281967
26835.937500	-128.196365
26859.375000	-128.275116
26882.812500	-128.323776
26906.250000	-128.241577
26929.687500	-128.226349
26953.125000	-128.259537
26976.562500	-128.247025
27000.000000	-128.170441
27023.437500	-128.215988
27046.875000	-128.215073
27070.312500	-128.219986
27093.750000	-128.208694
27117.187500	-128.270981
27140.625000	-128.183578
27164.062500	-128.210297
27187.500000	-128.285553
27210.937500	-128.281677
27234.375000	-128.206635
27257.812500	-128.215988
27281.250000	-128.157257
27304.687500	-128.215454
27328.125000	-128.218033
27351.562500	-128.263870
27375.000000	-128.277740
27398.437500	-128.365219
27421.875000	-128.256332
27445.312500	-128.176971
27468.750000	-128.216949
27492.187500	-128.190002
27515.625000	-128.192749
27539.062500	-128.214020
27562.500000	-128.164261
27585.937500	-128.214294
27609.375000	-128.193130
27632.812500	-128.190247
27656.250000	-128.141586
27679.687500	-128.182175
27703.125000	-128.215302
27726.562500	-128.244095
27750.000000	-128.321747
27773.437500	-128.195251
27796.875000	-128.211136
27820.312500	-128.200104
27843.750000	-128.092056
27867.187500	-128.201660
27890.625000	-128.215042
27914.062500	-128.176010
27937.500000	-128.218735
27960.937500	-128.300156
27984.375000	-128.153976
28007.812500	-128.112305
28031.250000	-128.177505
28054.687500	-128.183716
28078.125000	-128.168854
28101.562500	-128.291000
28125.000000	-128.330353
28148.437500	-128.245560
28171.875000	-128.184631
28195.312500	-128.165558
28218.750000	-128.129959
28242.187500	-128.194397
28265.625000	-128.269104
28289.062500	-128.198914
28312.500000	-128.222397
28335.937500	-128.242615
28359.375000	-128.219650
28382.812500	-128.193268
28406.250000	-128.251648
28429.687500	-128.262787
28453.125000	-128.244415
28476.562500	-128.135956
28500.000000	-128.138733
28523.437500	-128.228043
28546.875000	-128.286667
28570.312500	-128.186966
28593.750000	-128.128128
28617.187500	-128.188431
28640.625000	-128.200897
28664.062500	-128.199097
28687.500000	-128.164413
28710.937500	-128.179688
28734.375000	-128.229202
28757.812500	-128.257614
28781.250000	-128.243134
28804.687500	-128.240219
28828.125000	-128.219498
28851.562500	-128.211273
28875.000000	-128.240372
28898.437500	-128.316528
28921.875000	-128.250870
28945.312500	-128.120316
28968.750000	-128.142197
28992.187500	-128.209625
29015.625000	-128.110565
29039.062500	-128.163284
29062.500000	-128.274963
29085.937500	-128.261154
29109.375000	-128.136063
29132.812500	-128.111984
29156.250000	-128.136673
29179.687500	-128.171127
29203.125000	-128.155396
29226.562500	-128.140518
29250.000000	-128.116898
29273.437500	-128.133011
29296.875000	-128.177750
29320.312500	-128.188522
29343.750000	-128.146057
29367.187500	-128.158615
29390.625000	-128.214142
29414.062500	-128.241974
29437.500000	-128.221329
29460.937500	-128.141159
29484.375000	-128.151611
29507.812500	-128.128387
29531.250000	-128.146408
29554.687500	-128.254379
29578.125000	-128.176651
29601.562500	-128.112289
29625.000000	-128.181808
29648.437500	-128.279938
29671.875000	-128.174545
29695.312500	-128.130646
29718.750000	-128.197983
29742.187500	-128.200378
29765.625000	-128.176147
29789.062500	-128.149048
29812.500000	-128.160706
29835.937500	-128.125412
29859.375000	-128.182587
29882.812500	-128.178070
29906.250000	-128.183762
29929.687500	-128.127121
29953.125000	-128.169525
29976.562500	-128.220016
30000.000000	-128.142410
30023.437500	-128.149597
30046.875000	-128.207367
30070.312500	-128.183136
30093.750000	-128.142502
30117.187500	-128.183487
30140.625000	-128.184235
30164.062500	-128.191696
30187.500000	-128.173721
30210.937500	-128.161743
30234.375000	-128.133713
30257.812500	-128.146957
30281.250000	-128.148895
30304.687500	-128.221985
30328.125000	-128.170731
30351.562500	-128.216934
30375.000000	-128.249710
30398.437500	-128.162567
30421.875000	-128.152939
30445.312500	-128.165329
30468.750000	-128.155899
30492.187500	-128.136902
30515.625000	-128.222626
30539.062500	-128.212006
30562.500000	-128.147079
30585.937500	-128.085266
30609.375000	-128.186539
30632.812500	-128.147293
30656.250000	-128.134033
30679.687500	-128.199524
30703.125000	-128.182861
30726.562500	-128.141800
30750.000000	-128.137451
30773.437500	-128.174530
30796.875000	-128.120285
30820.312500	-128.090897
30843.750000	-128.061218
30867.187500	-128.072998
30890.625000	-128.139191
30914.062500	-128.130478
30937.500000	-128.119247
30960.937500	-128.212082
30984.375000	-128.189072
31007.812500	-128.056931
31031.250000	-128.075348
31054.687500	-128.188065
31078.125000	-128.162521
31101.562500	-128.140091
31125.000000	-128.059402
31148.437500	-128.010391
31171.875000	-128.064346
31195.312500	-128.104004
31218.750000	-128.193558
31242.187500	-128.188828
31265.625000	-128.163986
31289.062500	-128.078857
31312.500000	-128.128708
31335.937500	-128.173355
31359.375000	-128.193024
31382.812500	-128.200256
31406.250000	-128.219788
31429.687500	-128.125122
31453.125000	-128.095108
31476.562500	-128.045120
31500.000000	-128.018509
31523.437500	-128.117188
31546.875000	-128.182632
31570.312500	-128.273331
31593.750000	-128.193542
31617.187500	-128.112366
31640.625000	-128.048019
31664.062500	-128.060791
31687.500000	-128.160095
31710.937500	-128.163727
31734.375000	-128.206223
31757.812500	-128.193878
31781.250000	-128.118454
31804.687500	-128.096329
31828.125000	-128.063995
31851.562500	-128.132858
31875.000000	-128.118713
31898.437500	-128.095108
31921.875000	-128.123886
31945.312500	-128.153107
31968.750000	-128.131256
31992.187500	-128.066330
32015.625000	-128.105789
32039.062500	-128.113632
32062.500000	-128.101471
32085.937500	-128.057007
32109.375000	-128.081406
32132.812500	-128.080002
32156.250000	-128.115295
32179.687500	-128.155869
32203.125000	-128.183929
32226.562500	-128.150009
32250.000000	-128.174454
32273.437500	-128.186432
32296.875000	-128.151047
32320.312500	-128.132935
32343.750000	-128.112244
32367.187500	-128.061646
32390.625000	-128.022858
32414.062500	-128.100525
32437.500000	-128.140381
32460.937500	-128.061310
32484.375000	-128.067810
32507.812500	-128.089844
32531.250000	-128.121490
32554.687500	-128.022186
32578.125000	-128.015015
32601.562500	-128.044434
32625.000000	-128.050034
32648.437500	-128.102844
32671.875000	-128.086884
32695.312500	-128.074783
32718.750000	-128.087921
32742.187500	-128.128296
32765.625000	-128.136627
32789.062500	-128.020798
32812.500000	-128.114182
32835.937500	-128.089676
32859.375000	-128.013580
32882.812500	-128.079926
32906.250000	-128.089325
32929.687500	-128.126419
32953.125000	-128.101212
32976.562500	-128.065979
33000.000000	-128.054306
33023.437500	-128.050339
33046.875000	-128.189240
33070.312500	-128.184952
33093.750000	-128.130280
33117.187500	-128.152435
33140.625000	-128.161758
33164.062500	-128.094345
33187.500000	-128.132202
33210.937500	-128.143616
33234.375000	-128.056564
33257.812500	-128.101700
33281.250000	-128.112762
33304.687500	-128.114288
33328.125000	-128.064178
33351.562500	-127.996780
33375.000000	-128.076996
33398.437500	-128.098923
33421.875000	-128.146164
33445.312500	-128.019608
33468.750000	-128.033112
33492.187500	-128.090561
33515.625000	-128.181992
33539.062500	-128.101547
33562.500000	-128.047836
33585.937500	-128.103027
33609.375000	-128.121170
33632.812500	-128.133804
33656.250000	-128.159363
33679.687500	-128.076355
33703.125000	-128.062210
33726.562500	-128.061996
33750.000000	-128.114975
33773.437500	-128.057846
33796.875000	-128.063339
33820.312500	-128.059433
33843.750000	-128.127441
33867.187500	-128.147247
33890.625000	-128.099442
33914.062500	-128.081619
33937.500000	-128.088333
33960.937500	-128.011551
33984.375000	-128.076172
34007.812500	-128.087906
34031.250000	-128.000259
34054.687500	-128.037384
34078.125000	-128.115448
34101.562500	-128.136307
34125.000000	-128.108368
34148.437500	-128.107224
34171.875000	-128.123352
34195.312500	-128.043777
34218.750000	-128.044952
34242.187500	-128.052322
34265.625000	-128.019424
34289.062500	-128.093231
34312.500000	-128.079483
34335.937500	-128.119919
34359.375000	-128.103241
34382.812500	-128.090652
34406.250000	-128.096603
34429.687500	-128.130447
34453.125000	-128.120743
34476.562500	-128.076279
34500.000000	-128.091354
34523.437500	-128.127274
34546.875000	-128.098022
34570.312500	-128.065994
34593.750000	-127.993546
34617.187500	-128.047714
34640.625000	-128.118912
34664.062500	-128.111374
34687.500000	-128.067505
34710.937500	-128.060043
34734.375000	-128.133316
34757.812500	-128.110718
34781.250000	-128.076416
34804.687500	-127.962372
34828.125000	-128.014435
34851.562500	-128.048203
34875.000000	-128.134216
34898.437500	-128.152115
34921.875000	-128.103455
34945.312500	-128.113815
34968.750000	-128.060532
34992.187500	-128.079834
35015.625000	-128.000168
35039.062500	-128.044006
35062.500000	-128.093521
35085.937500	-128.024780
35109.375000	-128.027924
35132.812500	-128.049973
35156.250000	-128.135818
35179.687500	-128.095596
35203.125000	-128.062347
35226.562500	-128.067383
35250.000000	-128.089645
35273.437500	-128.094650
35296.875000	-128.074142
35320.312500	-128.022049
35343.750000	-128.070648
35367.187500	-128.123047
35390.625000	-128.050293
35414.062500	-128.069244
35437.500000	-128.022156
35460.937500	-128.061584
35484.375000	-128.039474
35507.812500	-128.030823
35531.250000	-128.079895
35554.687500	-128.041473
35578.125000	-128.099518
35601.562500	-127.975395
35625.000000	-128.034821
35648.437500	-128.141815
35671.875000	-128.104004
35695.312500	-128.031219
35718.750000	-128.018204
35742.187500	-128.001663
35765.625000	-128.010178
35789.062500	-127.999519
35812.500000	-128.002029
35835.937500	-127.985237
35859.375000	-128.054108
35882.812500	-128.059937
35906.250000	-128.112274
35929.687500	-128.029831
35953.125000	-128.027191
35976.562500	-128.030441
36000.000000	-128.048584
36023.437500	-127.987373
36046.875000	-127.982483
36070.312500	-127.970482
36093.750000	-128.001068
36117.187500	-128.091156
36140.625000	-128.057404
36164.062500	-128.038177
36187.500000	-128.115631
36210.937500	-127.993637
36234.375000	-128.007935
36257.812500	-127.996262
36281.250000	-128.034897
36304.687500	-127.975014
36328.125000	-128.017059
36351.562500	-128.075180
36375.000000	-128.123932
36398.437500	-128.112442
36421.875000	-128.085342
36445.312500	-128.023041
36468.750000	-128.125732
36492.187500	-128.101685
36515.625000	-128.111038
36539.062500	-128.099838
36562.500000	-128.052628
36585.937500	-128.018723
36609.375000	-127.995346
36632.812500	-128.100510
36656.250000	-128.140198
36679.687500	-128.071136
36703.125000	-128.136703
36726.562500	-128.020279
36750.000000	-127.945908
36773.437500	-128.030685
36796.875000	-128.031830
36820.312500	-127.928024
36843.750000	-127.942368
36867.187500	-127.980560
36890.625000	-127.966248
36914.062500	-127.952927
36937.500000	-127.966301
36960.937500	-128.025925
36984.375000	-128.034958
37007.812500	-127.971359
37031.250000	-127.980568
37054.687500	-128.044205
37078.125000	-128.032867
37101.562500	-128.022217
37125.000000	-128.017593
37148.437500	-128.005737
37171.875000	-127.975121
37195.312500	-127.996696
37218.750000	-127.985313
37242.187500	-127.949577
37265.625000	-128.015915
37289.062500	-127.989418
37312.500000	-127.956322
37335.937500	-127.948036
37359.375000	-128.013107
37382.812500	-128.053192
37406.250000	-128.010513
37429.687500	-127.926201
37453.125000	-127.919876
37476.562500	-127.993416
37500.000000	-128.012741
37523.437500	-128.056442
37546.875000	-128.037506
37570.312500	-128.009827
37593.750000	-128.026382
37617.187500	-127.900505
37640.625000	-127.906937
37664.062500	-127.910561
37687.500000	-127.906929
37710.937500	-127.938774
37734.375000	-128.019989
37757.812500	-128.091690
37781.250000	-127.922768
37804.687500	-127.976204
37828.125000	-128.064697
37851.562500	-127.992973
37875.000000	-127.928139
37898.437500	-127.932800
37921.875000	-128.008682
37945.312500	-128.059464
37968.750000	-127.959366
37992.187500	-127.950470
38015.625000	-127.980957
38039.062500	-127.972137
38062.500000	-128.034286
38085.937500	-127.972527
38109.375000	-128.009842
38132.812500	-128.008041
38156.250000	-128.003403
38179.687500	-128.054657
38203.125000	-128.031326
38226.562500	-128.031570
38250.000000	-128.008804
38273.437500	-128.000702
38296.875000	-127.975189
38320.312500	-127.987274
38343.750000	-128.057785
38367.187500	-128.019409
38390.625000	-127.931984
38414.062500	-127.926918
38437.500000	-127.959038
38460.937500	-127.975533
38484.375000	-127.956345
38507.812500	-127.974609
38531.250000	-127.996681
38554.687500	-127.987427
38578.125000	-128.011139
38601.562500	-128.069000
38625.000000	-127.995758
38648.437500	-128.011063
38671.875000	-127.941193
38695.312500	-127.924927
38718.750000	-127.907104
38742.187500	-127.916824
38765.625000	-127.928871
38789.062500	-128.051025
38812.500000	-128.059799
38835.937500	-127.988220
38859.375000	-127.974808
38882.812500	-127.946800
38906.250000	-127.851341
38929.687500	-127.839622
38953.125000	-127.865280
38976.562500	-128.006866
39000.000000	-128.033981
39023.437500	-127.939430
39046.875000	-127.917114
39070.312500	-128.001953
39093.750000	-127.919518
39117.187500	-127.977142
39140.625000	-127.973740
39164.062500	-127.908211
39187.500000	-127.910172
39210.937500	-127.920715
39234.375000	-127.897766
39257.812500	-127.921227
39281.250000	-127.922035
39304.687500	-127.909248
39328.125000	-127.920883
39351.562500	-127.935242
39375.000000	-128.021088
39398.437500	-128.069229
39421.875000	-128.034241
39445.312500	-128.014282
39468.750000	-127.931694
39492.187500	-127.886208
39515.625000	-127.867043
39539.062500	-127.962868
39562.500000	-128.022247
39585.937500	-127.960510
39609.375000	-127.935478
39632.812500	-127.940613
39656.250000	-128.006409
39679.687500	-127.972504
39703.125000	-127.951500
39726.562500	-127.999321
39750.000000	-128.005768
39773.437500	-127.972984
39796.875000	-127.949028
39820.312500	-127.954369
39843.750000	-127.983307
39867.187500	-127.955414
39890.625000	-127.965546
39914.062500	-127.827637
39937.500000	-127.852150
39960.937500	-127.937988
39984.375000	-128.018478
40007.812500	-127.941780
40031.250000	-128.019363
40054.687500	-128.020264
40078.125000	-127.912148
40101.562500	-127.871155
40125.000000	-127.886894
40148.437500	-127.932343
40171.875000	-127.982086
40195.312500	-128.010162
40218.750000	-128.010422
40242.187500	-127.941711
40265.625000	-127.794579
40289.062500	-127.902084
40312.500000	-127.934975
40335.937500	-127.984634
40359.375000	-127.913086
40382.812500	-127.951462
40406.250000	-128.051163
40429.687500	-127.933762
40453.125000	-128.006409
40476.562500	-128.061234
40500.000000	-127.992912
40523.437500	-127.947853
40546.875000	-127.940025
40570.312500	-127.968025
40593.750000	-127.969284
40617.187500	-127.923584
40640.625000	-127.898880
40664.062500	-128.031479
40687.500000	-128.043610
40710.937500	-128.061295
40734.375000	-128.035156
40757.812500	-127.966270
40781.250000	-127.936745
40804.687500	-127.994308
40828.125000	-127.956161
40851.562500	-128.024719
40875.000000	-128.005936
40898.437500	-127.935127
40921.875000	-127.914833
40945.312500	-127.967552
40968.750000	-128.006500
40992.187500	-128.036896
41015.625000	-128.049530
41039.062500	-128.002243
41062.500000	-127.984741
41085.937500	-127.942871
41109.375000	-128.039917
41132.812500	-128.085342
41156.250000	-127.992958
41179.687500	-127.992683
41203.125000	-128.017075
41226.562500	-127.969276
41250.000000	-128.036057
41273.437500	-128.020569
41296.875000	-128.039307
41320.312500	-128.007355
41343.750000	-127.971512
41367.187500	-127.935234
41390.625000	-127.992638
41414.062500	-128.010056
41437.500000	-127.970772
41460.937500	-127.986893
41484.375000	-128.067261
41507.812500	-128.027420
41531.250000	-127.982170
41554.687500	-127.943939
41578.125000	-128.049332
41601.562500	-128.090454
41625.000000	-128.093246
41648.437500	-128.108078
41671.875000	-128.019745
41695.312500	-128.014603
41718.750000	-128.031189
41742.187500	-127.989174
41765.625000	-128.016800
41789.062500	-128.029160
41812.500000	-128.071335
41835.937500	-128.144135
41859.375000	-128.126633
41882.812500	-128.084015
41906.250000	-128.084534
41929.687500	-128.103851
41953.125000	-128.188751
41976.562500	-128.153885
42000.000000	-128.142563
42023.437500	-128.184799
42046.875000	-128.146759
42070.312500	-128.090851
42093.750000	-128.086746
42117.187500	-128.134445
42140.625000	-128.119171
42164.062500	-128.104172
42187.500000	-128.188141
42210.937500	-128.203094
42234.375000	-128.184799
42257.812500	-128.162598
42281.250000	-128.161789
42304.687500	-128.134933
42328.125000	-128.149338
42351.562500	-128.173416
42375.000000	-128.157562
42398.437500	-128.213608
42421.875000	-128.276733
42445.312500	-128.204803
42468.750000	-128.179611
42492.187500	-128.172409
42515.625000	-128.242340
42539.062500	-128.199631
42562.500000	-128.230103
42585.937500	-128.303955
42609.375000	-128.306503
42632.812500	-128.269394
42656.250000	-128.214554
42679.687500	-128.222610
42703.125000	-128.222107
42726.562500	-128.211746
42750.000000	-128.220673
42773.437500	-128.201797
42796.875000	-128.181885
42820.312500	-128.257248
42843.750000	-128.285782
42867.187500	-128.282349
42890.625000	-128.235397
42914.062500	-128.303177
42937.500000	-128.360107
42960.937500	-128.392685
42984.375000	-128.297577
43007.812500	-128.368927
43031.250000	-128.380264
43054.687500	-128.367477
43078.125000	-128.432846
43101.562500	-128.397675
43125.000000	-128.347046
43148.437500	-128.329849
43171.875000	-128.395630
43195.312500	-128.387024
43218.750000	-128.428299
43242.187500	-128.429092
43265.625000	-128.396378
43289.062500	-128.411575
43312.500000	-128.395081
43335.937500	-128.475342
43359.375000	-128.389526
43382.812500	-128.417496
43406.250000	-128.554962
43429.687500	-128.493790
43453.125000	-128.487656
43476.562500	-128.493027
43500.000000	-128.516876
43523.437500	-128.469284
43546.875000	-128.559891
43570.312500	-128.519714
43593.750000	-128.539551
43617.187500	-128.526443
43640.625000	-128.512833
43664.062500	-128.592209
43687.500000	-128.656937
43710.937500	-128.573288
43734.375000	-128.576797
43757.812500	-128.624069
43781.250000	-128.613419
43804.687500	-128.586288
43828.125000	-128.558273
43851.562500	-128.574631
43875.000000	-128.646317
43898.437500	-128.585373
43921.875000	-128.656311
43945.312500	-128.803085
43968.750000	-128.730103
43992.187500	-128.732910
44015.625000	-128.715256
44039.062500	-128.686508
44062.500000	-128.747101
44085.937500	-128.756577
44109.375000	-128.736801
44132.812500	-128.701218
44156.250000	-128.693039
44179.687500	-128.784760
44203.125000	-128.825455
44226.562500	-128.786591
44250.000000	-128.860931
44273.437500	-128.844025
44296.875000	-128.929413
44320.312500	-128.908234
44343.750000	-128.830139
44367.187500	-128.850403
44390.625000	-128.952057
44414.062500	-128.910126
44437.500000	-128.924149
44460.937500	-128.991379
44484.375000	-128.963745
44507.812500	-128.947891
44531.250000	-128.934616
44554.687500	-129.022964
44578.125000	-129.061462
44601.562500	-128.975784
44625.000000	-128.960037
44648.437500	-129.028488
44671.875000	-129.124435
44695.312500	-129.142441
44718.750000	-129.173965
44742.187500	-129.102386
44765.625000	-129.167816
44789.062500	-129.088303
44812.500000	-129.128433
44835.937500	-129.123459
44859.375000	-129.084412
44882.812500	-129.037079
44906.250000	-129.182571
44929.687500	-129.224335
44953.125000	-129.243790
44976.562500	-129.282959
45000.000000	-129.249313
45023.437500	-129.208908
45046.875000	-129.226120
45070.312500	-129.300232
45093.750000	-129.345291
45117.187500	-129.344070
45140.625000	-129.429871
45164.062500	-129.441269
45187.500000	-129.404648
45210.937500	-129.354202
45234.375000	-129.406967
45257.812500	-129.476074
45281.250000	-129.451477
45304.687500	-129.396179
45328.125000	-129.451187
45351.562500	-129.457993
45375.000000	-129.533936
45398.437500	-129.563614
45421.875000	-129.518326
45445.312500	-129.495239
45468.750000	-129.570587
45492.187500	-129.576843
45515.625000	-129.612137
45539.062500	-129.623444
45562.500000	-129.556488
45585.937500	-129.581085
45609.375000	-129.603760
45632.812500	-129.558075
45656.250000	-129.584732
45679.687500	-129.603973
45703.125000	-129.663818
45726.562500	-129.638733
45750.000000	-129.622559
45773.437500	-129.612518
45796.875000	-129.679108
45820.312500	-129.658112
45843.750000	-129.713943
45867.187500	-129.724991
45890.625000	-129.742508
45914.062500	-129.765244
45937.500000	-129.865601
45960.937500	-129.946213
45984.375000	-129.952438
46007.812500	-129.909836
46031.250000	-129.870667
46054.687500	-129.799789
46078.125000	-129.836716
46101.562500	-129.914948
46125.000000	-129.951996
46148.437500	-129.940582
46171.875000	-129.989563
46195.312500	-129.974976
46218.750000	-130.003738
46242.187500	-129.975571
46265.625000	-130.005920
46289.062500	-130.082230
46312.500000	-130.131409
46335.937500	-130.095459
46359.375000	-129.972260
46382.812500	-129.942276
46406.250000	-130.006821
46429.687500	-130.067413
46453.125000	-130.097702
46476.562500	-129.948517
46500.000000	-130.070160
46523.437500	-130.230347
46546.875000	-130.210815
46570.312500	-130.154022
46593.750000	-130.182312
46617.187500	-130.206497
46640.625000	-130.221878
46664.062500	-130.237625
46687.500000	-130.298889
46710.937500	-130.237396
46734.375000	-130.284058
46757.812500	-130.247849
46781.250000	-130.236588
46804.687500	-130.251938
46828.125000	-130.349548
46851.562500	-130.367645
46875.000000	-130.377853
46898.437500	-130.317749
46921.875000	-130.340347
46945.312500	-130.400589
46968.750000	-130.401337
46992.187500	-130.423721
47015.625000	-130.381485
47039.062500	-130.417999
47062.500000	-130.419785
47085.937500	-130.535156
47109.375000	-130.464569
47132.812500	-130.426743
47156.250000	-130.480423
47179.687500	-130.466553
47203.125000	-130.454987
47226.562500	-130.446167
47250.000000	-130.500031
47273.437500	-130.516525
47296.875000	-130.479919
47320.312500	-130.491653
47343.750000	-130.502396
47367.187500	-130.454987
47390.625000	-130.425980
47414.062500	-130.453384
47437.500000	-130.553864
47460.937500	-130.655273
47484.375000	-130.639725
47507.812500	-130.509735
47531.250000	-130.484985
47554.687500	-130.548630
47578.125000	-130.571747
47601.562500	-130.571640
47625.000000	-130.592239
47648.437500	-130.577423
47671.875000	-130.603638
47695.312500	-130.604019
47718.750000	-130.579132
47742.187500	-130.616333
47765.625000	-130.596329
47789.062500	-130.569931
47812.500000	-130.555344
47835.937500	-130.596497
47859.375000	-130.529633
47882.812500	-130.617676
47906.250000	-130.665894
47929.687500	-130.615814
47953.125000	-130.623077
47976.562500	-130.591370
