주파수 (Hz)	레벨 (dB)
23.437500	-90.113976
46.875000	-75.589592
70.312500	-62.931046
93.750000	-54.969025
117.187500	-49.653275
140.625000	-47.996094
164.062500	-49.292336
187.500000	-46.519943
210.937500	-47.094410
234.375000	-46.806850
257.812500	-42.619942
281.250000	-43.127346
304.687500	-43.479610
328.125000	-41.408184
351.562500	-41.261559
375.000000	-44.918518
398.437500	-45.475922
421.875000	-41.251286
445.312500	-38.182045
468.750000	-42.421959
492.187500	-44.285992
515.625000	-39.932457
539.062500	-40.798653
562.500000	-48.051521
585.937500	-46.010948
609.375000	-42.896053
632.812500	-41.716724
656.250000	-47.880733
679.687500	-47.005447
703.125000	-43.182323
726.562500	-46.261982
750.000000	-47.882511
773.437500	-48.413643
796.875000	-47.553947
820.312500	-43.302933
843.750000	-42.096554
867.187500	-48.048634
890.625000	-47.865952
914.062500	-55.280590
937.500000	-55.841568
960.937500	-56.714638
984.375000	-52.264370
1007.812500	-54.350491
1031.250000	-51.075123
1054.687500	-47.741978
1078.125000	-53.645668
1101.562500	-57.533215
1125.000000	-60.433140
1148.437500	-60.444149
1171.875000	-52.477398
1195.312500	-52.190220
1218.750000	-60.640881
1242.187500	-53.410576
1265.625000	-53.062653
1289.062500	-61.586758
1312.500000	-56.913364
1335.937500	-55.477871
1359.375000	-60.919010
1382.812500	-60.013195
1406.250000	-58.391491
1429.687500	-61.180717
1453.125000	-62.080948
1476.562500	-55.658733
1500.000000	-55.381615
1523.437500	-63.616528
1546.875000	-62.601902
1570.312500	-55.419029
1593.750000	-55.753002
1617.187500	-65.020340
1640.625000	-64.916290
1664.062500	-57.292217
1687.500000	-58.037861
1710.937500	-66.117912
1734.375000	-63.674683
1757.812500	-57.535759
1781.250000	-55.897560
1804.687500	-62.429272
1828.125000	-65.297485
1851.562500	-62.760666
1875.000000	-59.855072
1898.437500	-61.172497
1921.875000	-67.005539
1945.312500	-66.100014
1968.750000	-58.195129
1992.187500	-58.311054
2015.625000	-66.957993
2039.062500	-73.155037
2062.500000	-69.591949
2085.937500	-64.040215
2109.375000	-58.339642
2132.812500	-59.295601
2156.250000	-68.627151
2179.687500	-71.060112
2203.125000	-65.226524
2226.562500	-61.220558
2250.000000	-63.084255
2273.437500	-71.742958
2296.875000	-74.729752
2320.312500	-69.432556
2343.750000	-66.714264
2367.187500	-59.469666
2390.625000	-57.664368
2414.062500	-65.802574
2437.500000	-72.423859
2460.937500	-66.051872
2484.375000	-61.063526
2507.812500	-62.194885
2531.250000	-63.126598
2554.687500	-70.887779
2578.125000	-77.924377
2601.562500	-77.868019
2625.000000	-74.958138
2648.437500	-68.118797
2671.875000	-64.494995
2695.312500	-67.049782
2718.750000	-72.401062
2742.187500	-70.588821
2765.625000	-67.506363
2789.062500	-65.265152
2812.500000	-65.094734
2835.937500	-61.798748
2859.375000	-65.135162
2882.812500	-74.546318
2906.250000	-78.776237
2929.687500	-76.836708
2953.125000	-73.769623
2976.562500	-71.028999
3000.000000	-67.301430
3023.437500	-67.976036
3046.875000	-71.174294
3070.312500	-75.858643
3093.750000	-72.179169
3117.187500	-73.956566
3140.625000	-73.706680
3164.062500	-71.096519
3187.500000	-69.275635
3210.937500	-66.520241
3234.375000	-70.520706
3257.812500	-79.469803
3281.250000	-73.733795
3304.687500	-72.378120
3328.125000	-74.444008
3351.562500	-75.672180
3375.000000	-73.468155
3398.437500	-73.160019
3421.875000	-75.859673
3445.312500	-79.412392
3468.750000	-81.559074
3492.187500	-78.484413
3515.625000	-77.814774
3539.062500	-74.133736
3562.500000	-70.817513
3585.937500	-68.434761
3609.375000	-68.943634
3632.812500	-70.050766
3656.250000	-75.089607
3679.687500	-79.464119
3703.125000	-78.811134
3726.562500	-79.462334
3750.000000	-68.962883
3773.437500	-65.072342
3796.875000	-71.022644
3820.312500	-70.870010
3843.750000	-70.242607
3867.187500	-75.094254
3890.625000	-81.380295
3914.062500	-82.590477
3937.500000	-76.939445
3960.937500	-76.254219
3984.375000	-78.479195
4007.812500	-77.947220
4031.250000	-79.630684
4054.687500	-77.204041
4078.125000	-75.441101
4101.562500	-78.901131
4125.000000	-83.836716
4148.437500	-86.171082
4171.875000	-84.509285
4195.312500	-82.341408
4218.750000	-78.905769
4242.187500	-73.887764
4265.625000	-73.884636
4289.062500	-75.365196
4312.500000	-76.000069
4335.937500	-77.047760
4359.375000	-78.893494
4382.812500	-83.375061
4406.250000	-84.684090
4429.687500	-82.154411
4453.125000	-80.657921
4476.562500	-76.139603
4500.000000	-77.267929
4523.437500	-80.632225
4546.875000	-80.782120
4570.312500	-81.850662
4593.750000	-79.434753
4617.187500	-79.301903
4640.625000	-85.673820
4664.062500	-87.518059
4687.500000	-85.585854
4710.937500	-86.726562
4734.375000	-84.417519
4757.812500	-82.062531
4781.250000	-85.881821
4804.687500	-87.774269
4828.125000	-83.223373
4851.562500	-80.116074
4875.000000	-82.076180
4898.437500	-85.389160
4921.875000	-83.687622
4945.312500	-83.579041
4968.750000	-88.439331
4992.187500	-90.337570
5015.625000	-91.140411
5039.062500	-88.075005
5062.500000	-82.340279
5085.937500	-85.122032
5109.375000	-86.712593
5132.812500	-76.245049
5156.250000	-74.800392
5179.687500	-79.116844
5203.125000	-84.649246
5226.562500	-87.780434
5250.000000	-88.990341
5273.437500	-84.824364
5296.875000	-89.407776
5320.312500	-94.940712
5343.750000	-88.207901
5367.187500	-83.269096
5390.625000	-84.049660
5414.062500	-87.555153
5437.500000	-88.536537
5460.937500	-87.790695
5484.375000	-85.808884
5507.812500	-87.104790
5531.250000	-89.681778
5554.687500	-87.037849
5578.125000	-89.792458
5601.562500	-91.435532
5625.000000	-90.760544
5648.437500	-96.324860
5671.875000	-96.160492
5695.312500	-90.151840
5718.750000	-85.533638
5742.187500	-86.139160
5765.625000	-90.805115
5789.062500	-95.284500
5812.500000	-86.935555
5835.937500	-84.273346
5859.375000	-88.314125
5882.812500	-94.557472
5906.250000	-93.687836
5929.687500	-92.966446
5953.125000	-94.660515
5976.562500	-92.197517
6000.000000	-92.573715
6023.437500	-98.082794
6046.875000	-97.330650
6070.312500	-88.999535
6093.750000	-85.915337
6117.187500	-88.601357
6140.625000	-93.233505
6164.062500	-95.339485
6187.500000	-90.112366
6210.937500	-87.864441
6234.375000	-89.826775
6257.812500	-94.015533
6281.250000	-90.640221
6304.687500	-90.471603
6328.125000	-93.364342
6351.562500	-96.298309
6375.000000	-92.280136
6398.437500	-94.055664
6421.875000	-98.684837
6445.312500	-94.042824
6468.750000	-92.744072
6492.187500	-92.445572
6515.625000	-91.502655
6539.062500	-95.405937
6562.500000	-92.707474
6585.937500	-91.008865
6609.375000	-89.173431
6632.812500	-93.394241
6656.250000	-97.730675
6679.687500	-93.789894
6703.125000	-93.567993
6726.562500	-95.462868
6750.000000	-95.375519
6773.437500	-92.117386
6796.875000	-93.513107
6820.312500	-95.080826
6843.750000	-97.721695
6867.187500	-101.898369
6890.625000	-99.480682
6914.062500	-97.536530
6937.500000	-98.589233
6960.937500	-95.934692
6984.375000	-91.599220
7007.812500	-88.050255
7031.250000	-85.395180
7054.687500	-88.427254
7078.125000	-93.921280
7101.562500	-96.296371
7125.000000	-97.363235
7148.437500	-97.518860
7171.875000	-100.335304
7195.312500	-99.876152
7218.750000	-99.312103
7242.187500	-93.726234
7265.625000	-89.350510
7289.062500	-91.949295
7312.500000	-99.012985
7335.937500	-101.647141
7359.375000	-101.668541
7382.812500	-102.042870
7406.250000	-99.372162
7429.687500	-96.592865
7453.125000	-95.106766
7476.562500	-91.323250
7500.000000	-88.830116
7523.437500	-87.889275
7546.875000	-91.513023
7570.312500	-97.104095
7593.750000	-99.523529
7617.187500	-100.545013
7640.625000	-101.775955
7664.062500	-102.481384
7687.500000	-101.602859
7710.937500	-101.936913
7734.375000	-98.464256
7757.812500	-93.397217
7781.250000	-93.782043
7804.687500	-96.047981
7828.125000	-97.277466
7851.562500	-93.505249
7875.000000	-92.439667
7898.437500	-99.837021
7921.875000	-102.347031
7945.312500	-99.442520
7968.750000	-94.107315
7992.187500	-90.752968
8015.625000	-89.035248
8039.062500	-92.740074
8062.500000	-95.812584
8085.937500	-94.629059
8109.375000	-96.155899
8132.812500	-102.216209
8156.250000	-104.367142
8179.687500	-104.895813
8203.125000	-105.119987
8226.562500	-104.497978
8250.000000	-101.049080
8273.437500	-99.661964
8296.875000	-102.070412
8320.312500	-99.120827
8343.750000	-100.697327
8367.187500	-104.452995
8390.625000	-105.131897
8414.062500	-101.922096
8437.500000	-96.551666
8460.937500	-97.839058
8484.375000	-103.018478
8507.812500	-104.201256
8531.250000	-101.235855
8554.687500	-100.387749
8578.125000	-103.188675
8601.562500	-106.193443
8625.000000	-108.402145
8648.437500	-109.176041
8671.875000	-108.081841
8695.312500	-107.420998
8718.750000	-106.601593
8742.187500	-107.014198
8765.625000	-108.329475
8789.062500	-108.942055
8812.500000	-107.345345
8835.937500	-106.823914
8859.375000	-108.022690
8882.812500	-104.699974
8906.250000	-102.512245
8929.687500	-105.090874
8953.125000	-108.848663
8976.562500	-105.264862
9000.000000	-100.514084
9023.437500	-97.436935
9046.875000	-99.899109
9070.312500	-103.542320
9093.750000	-103.213913
9117.187500	-100.438881
9140.625000	-102.728378
9164.062500	-106.946686
9187.500000	-107.327644
9210.937500	-108.278000
9234.375000	-109.544174
9257.812500	-110.397224
9281.250000	-109.784737
9304.687500	-110.241951
9328.125000	-109.357719
9351.562500	-108.145508
9375.000000	-104.959473
9398.437500	-104.109985
9421.875000	-102.764694
9445.312500	-103.836655
9468.750000	-105.561440
9492.187500	-107.579315
9515.625000	-108.493423
9539.062500	-109.854210
9562.500000	-109.229713
9585.937500	-108.575653
9609.375000	-108.199806
9632.812500	-108.320930
9656.250000	-108.991661
9679.687500	-109.129662
9703.125000	-108.581871
9726.562500	-109.431107
9750.000000	-112.443222
9773.437500	-111.563042
9796.875000	-110.541039
9820.312500	-112.737167
9843.750000	-111.121506
9867.187500	-110.148407
9890.625000	-111.535126
9914.062500	-111.743095
9937.500000	-111.121399
9960.937500	-109.829262
9984.375000	-108.952232
10007.812500	-104.605186
10031.250000	-100.280258
10054.687500	-102.666290
10078.125000	-103.567497
10101.562500	-104.859543
10125.000000	-108.469376
10148.437500	-109.594681
10171.875000	-109.346382
10195.312500	-109.231102
10218.750000	-109.410126
10242.187500	-110.255783
10265.625000	-107.907860
10289.062500	-105.428368
10312.500000	-106.096138
10335.937500	-108.191917
10359.375000	-108.979668
10382.812500	-108.925255
10406.250000	-105.304535
10429.687500	-104.044991
10453.125000	-105.882233
10476.562500	-107.402313
10500.000000	-107.305908
10523.437500	-106.648460
10546.875000	-107.297058
10570.312500	-107.930984
10593.750000	-109.774590
10617.187500	-112.816498
10640.625000	-113.592125
10664.062500	-113.787117
10687.500000	-113.559341
10710.937500	-111.730293
10734.375000	-110.886398
10757.812500	-111.577484
10781.250000	-113.765968
10804.687500	-113.137848
10828.125000	-112.429695
10851.562500	-114.181190
10875.000000	-114.927765
10898.437500	-115.027405
10921.875000	-115.190636
10945.312500	-115.599243
10968.750000	-115.568748
10992.187500	-115.494148
11015.625000	-114.748764
11039.062500	-114.476418
11062.500000	-115.748962
11085.937500	-115.331619
11109.375000	-112.395210
11132.812500	-111.573982
11156.250000	-112.786842
11179.687500	-112.672302
11203.125000	-112.012367
11226.562500	-112.492676
11250.000000	-112.814781
11273.437500	-115.082642
11296.875000	-117.982651
11320.312500	-115.856277
11343.750000	-112.681183
11367.187500	-113.624626
11390.625000	-115.456848
11414.062500	-113.083839
11437.500000	-111.538162
11460.937500	-114.250122
11484.375000	-115.477867
11507.812500	-114.094444
11531.250000	-114.530968
11554.687500	-114.381981
11578.125000	-114.069946
11601.562500	-113.720932
11625.000000	-113.976265
11648.437500	-113.944435
11671.875000	-113.381630
11695.312500	-113.242004
11718.750000	-114.144196
11742.187500	-113.897003
11765.625000	-113.983345
11789.062500	-114.845062
11812.500000	-116.514359
11835.937500	-116.533989
11859.375000	-115.994202
11882.812500	-114.722168
11906.250000	-113.217545
11929.687500	-114.692101
11953.125000	-115.640114
11976.562500	-115.315773
12000.000000	-114.253479
12023.437500	-116.659775
12046.875000	-116.923431
12070.312500	-116.250038
12093.750000	-115.632675
12117.187500	-116.126457
12140.625000	-116.785484
12164.062500	-116.505081
12187.500000	-116.015289
12210.937500	-115.157143
12234.375000	-112.911201
12257.812500	-111.586342
12281.250000	-111.904854
12304.687500	-107.901306
12328.125000	-110.289337
12351.562500	-115.270630
12375.000000	-115.095589
12398.437500	-117.062561
12421.875000	-117.865265
12445.312500	-117.338562
12468.750000	-116.991837
12492.187500	-117.476257
12515.625000	-117.211655
12539.062500	-117.389816
12562.500000	-116.590584
12585.937500	-115.226967
12609.375000	-115.552139
12632.812500	-115.165764
12656.250000	-115.169266
12679.687500	-116.398323
12703.125000	-116.254204
12726.562500	-115.546440
12750.000000	-116.022308
12773.437500	-116.804329
12796.875000	-116.852455
12820.312500	-115.200302
12843.750000	-115.250999
12867.187500	-115.807137
12890.625000	-116.694611
12914.062500	-117.616646
12937.500000	-118.393349
12960.937500	-118.283699
12984.375000	-118.288414
13007.812500	-117.939270
13031.250000	-118.110924
13054.687500	-117.766891
13078.125000	-116.958168
13101.562500	-117.772385
13125.000000	-118.170563
13148.437500	-118.275452
13171.875000	-118.233315
13195.312500	-117.771683
13218.750000	-117.528755
13242.187500	-117.471458
13265.625000	-117.345963
13289.062500	-117.060699
13312.500000	-116.902496
13335.937500	-116.298126
13359.375000	-115.791328
13382.812500	-115.838058
13406.250000	-115.483345
13429.687500	-114.595482
13453.125000	-114.280434
13476.562500	-114.465179
13500.000000	-113.271111
13523.437500	-111.243134
13546.875000	-114.388580
13570.312500	-118.004280
13593.750000	-118.350052
13617.187500	-118.135727
13640.625000	-118.157013
13664.062500	-117.832870
13687.500000	-116.992218
13710.937500	-116.796875
13734.375000	-117.990242
13757.812500	-118.770546
13781.250000	-119.131332
13804.687500	-119.073341
13828.125000	-119.058716
13851.562500	-118.774025
13875.000000	-119.055824
13898.437500	-119.447334
13921.875000	-119.353577
13945.312500	-119.533142
13968.750000	-119.086441
13992.187500	-119.402122
14015.625000	-119.150665
14039.062500	-119.165344
14062.500000	-119.516083
14085.937500	-118.605400
14109.375000	-118.253555
14132.812500	-119.107643
14156.250000	-119.293480
14179.687500	-119.505859
14203.125000	-119.567352
14226.562500	-119.366547
14250.000000	-119.428223
14273.437500	-120.099754
14296.875000	-120.406395
14320.312500	-120.128082
14343.750000	-119.925781
14367.187500	-119.448906
14390.625000	-119.647446
14414.062500	-120.179817
14437.500000	-120.009392
14460.937500	-119.985207
14484.375000	-120.255608
14507.812500	-120.390137
14531.250000	-120.458565
14554.687500	-120.407372
14578.125000	-120.718842
14601.562500	-120.945572
14625.000000	-120.491356
14648.437500	-118.893555
14671.875000	-116.586128
14695.312500	-116.460899
14718.750000	-117.300842
14742.187500	-117.094231
14765.625000	-118.214325
14789.062500	-119.733986
14812.500000	-120.119370
14835.937500	-120.450623
14859.375000	-120.629082
14882.812500	-120.848206
14906.250000	-120.530708
14929.687500	-120.276230
14953.125000	-120.348740
14976.562500	-120.001434
15000.000000	-118.794899
15023.437500	-119.656082
15046.875000	-120.247070
15070.312500	-120.220200
15093.750000	-120.562927
15117.187500	-120.323845
15140.625000	-120.081497
15164.062500	-120.881493
15187.500000	-120.622292
15210.937500	-120.400719
15234.375000	-120.681366
15257.812500	-121.062752
15281.250000	-121.138336
15304.687500	-121.243134
15328.125000	-121.326340
15351.562500	-121.117470
15375.000000	-120.858345
15398.437500	-121.063454
15421.875000	-121.235176
15445.312500	-120.983421
15468.750000	-120.331802
15492.187500	-120.299713
15515.625000	-120.985176
15539.062500	-121.218582
15562.500000	-121.465820
15585.937500	-121.448097
15609.375000	-121.449738
15632.812500	-121.583725
15656.250000	-121.528793
15679.687500	-121.226707
15703.125000	-121.106117
15726.562500	-121.052040
15750.000000	-120.919945
15773.437500	-120.845055
15796.875000	-121.227402
15820.312500	-121.514862
15843.750000	-121.590553
15867.187500	-121.387405
15890.625000	-121.213074
15914.062500	-120.583542
15937.500000	-119.004738
15960.937500	-116.263718
15984.375000	-116.063972
16007.812500	-118.499130
16031.250000	-120.178574
16054.687500	-120.475578
16078.125000	-121.248856
16101.562500	-121.367104
16125.000000	-121.789810
16148.437500	-122.028526
16171.875000	-121.926880
16195.312500	-121.902390
16218.750000	-121.921265
16242.187500	-121.924622
16265.625000	-121.835983
16289.062500	-121.949326
16312.500000	-121.973053
16335.937500	-122.051430
16359.375000	-122.134705
16382.812500	-122.060394
16406.250000	-121.935219
16429.687500	-122.056686
16453.125000	-122.150185
16476.562500	-121.921974
16500.000000	-121.013206
16523.437500	-121.682686
16546.875000	-122.046692
16570.312500	-122.270424
16593.750000	-122.251778
16617.187500	-122.085480
16640.625000	-122.153030
16664.062500	-122.260025
16687.500000	-122.184097
16710.937500	-122.170052
16734.375000	-122.381935
16757.812500	-122.356827
16781.250000	-121.953384
16804.687500	-121.458076
16828.125000	-121.145523
16851.562500	-121.204384
16875.000000	-121.721596
16898.437500	-121.826866
16921.875000	-121.636391
16945.312500	-121.939537
16968.750000	-122.363159
16992.187500	-122.525070
17015.625000	-122.343964
17039.062500	-122.204346
17062.500000	-122.241699
17085.937500	-122.519287
17109.375000	-122.716034
17132.812500	-122.689972
17156.250000	-122.600113
17179.687500	-122.467339
17203.125000	-122.203758
17226.562500	-122.014748
17250.000000	-122.266937
17273.437500	-122.192841
17296.875000	-122.083534
17320.312500	-122.535515
17343.750000	-122.613121
17367.187500	-122.659332
17390.625000	-122.645775
17414.062500	-122.500000
17437.500000	-122.443787
17460.937500	-122.611748
17484.375000	-122.689903
17507.812500	-122.785126
17531.250000	-122.782333
17554.687500	-122.812073
17578.125000	-122.791885
17601.562500	-122.810272
17625.000000	-122.842148
17648.437500	-122.796394
17671.875000	-122.770592
17695.312500	-122.812172
17718.750000	-122.816864
17742.187500	-122.801712
17765.625000	-122.938538
17789.062500	-122.961311
17812.500000	-122.806976
17835.937500	-122.847633
17859.375000	-122.892609
17882.812500	-122.943001
17906.250000	-123.042740
17929.687500	-122.961311
17953.125000	-122.859917
17976.562500	-122.437386
18000.000000	-121.217682
18023.437500	-122.324982
18046.875000	-122.795296
18070.312500	-122.895477
18093.750000	-122.967354
18117.187500	-122.958435
18140.625000	-123.051750
18164.062500	-123.075348
18187.500000	-122.926544
18210.937500	-123.021065
18234.375000	-123.052490
18257.812500	-122.962563
18281.250000	-122.949028
18304.687500	-123.013451
18328.125000	-123.104912
18351.562500	-123.040802
18375.000000	-123.031815
18398.437500	-122.983635
18421.875000	-122.920502
18445.312500	-122.909897
18468.750000	-122.876358
18492.187500	-122.892441
18515.625000	-122.918480
18539.062500	-122.791084
18562.500000	-122.400864
18585.937500	-122.066200
18609.375000	-121.989388
18632.812500	-122.190659
18656.250000	-122.611732
18679.687500	-122.731415
18703.125000	-122.842209
18726.562500	-122.875908
18750.000000	-122.960899
18773.437500	-122.920891
18796.875000	-122.722145
18820.312500	-122.452888
18843.750000	-122.399773
18867.187500	-122.332191
18890.625000	-122.235802
18914.062500	-122.237961
18937.500000	-122.176353
18960.937500	-122.164551
18984.375000	-122.021332
19007.812500	-121.627029
19031.250000	-121.243660
19054.687500	-120.718513
19078.125000	-119.288330
19101.562500	-116.529961
19125.000000	-113.446693
19148.437500	-111.148598
19171.875000	-109.889740
19195.312500	-108.532738
19218.750000	-107.431190
19242.187500	-107.891724
19265.625000	-109.435005
19289.062500	-110.029724
19312.500000	-110.647491
19335.937500	-111.655792
19359.375000	-112.616661
19382.812500	-113.006157
19406.250000	-113.348846
19429.687500	-114.704048
19453.125000	-116.413940
19476.562500	-117.480721
19500.000000	-118.081909
19523.437500	-119.178123
19546.875000	-119.981689
19570.312500	-120.268112
19593.750000	-120.273621
19617.187500	-120.334854
19640.625000	-120.287857
19664.062500	-120.259224
19687.500000	-120.477524
19710.937500	-120.706825
19734.375000	-120.818481
19757.812500	-120.992722
19781.250000	-121.359169
19804.687500	-121.819809
19828.125000	-121.624832
19851.562500	-121.621544
19875.000000	-122.032242
19898.437500	-122.445381
19921.875000	-122.663696
19945.312500	-122.543976
19968.750000	-122.524460
19992.187500	-122.745865
20015.625000	-122.621147
20039.062500	-122.397362
20062.500000	-122.185936
20085.937500	-122.370186
20109.375000	-120.018425
20132.812500	-115.775581
20156.250000	-118.955254
20179.687500	-121.826065
20203.125000	-121.929794
20226.562500	-121.845146
20250.000000	-121.496666
20273.437500	-121.653610
20296.875000	-121.909340
20320.312500	-121.926971
20343.750000	-121.886559
20367.187500	-121.861855
20390.625000	-121.940491
20414.062500	-122.196159
20437.500000	-122.225082
20460.937500	-122.108704
20484.375000	-122.100426
20507.812500	-122.089935
20531.250000	-122.205681
20554.687500	-122.294907
20578.125000	-122.285103
20601.562500	-122.420883
20625.000000	-122.565826
20648.437500	-122.628807
20671.875000	-122.789612
20695.312500	-122.966469
20718.750000	-123.003471
20742.187500	-123.136826
20765.625000	-123.150444
20789.062500	-123.171745
20812.500000	-123.257301
20835.937500	-123.316864
20859.375000	-123.266266
20882.812500	-123.318825
20906.250000	-123.336609
20929.687500	-123.412636
20953.125000	-123.366562
20976.562500	-122.911682
21000.000000	-121.932465
21023.437500	-122.587769
21046.875000	-122.829803
21070.312500	-122.905365
21093.750000	-123.028961
21117.187500	-123.037552
21140.625000	-122.911240
21164.062500	-123.008049
21187.500000	-123.299522
21210.937500	-123.415848
21234.375000	-123.390335
21257.812500	-123.458290
21281.250000	-123.551315
21304.687500	-123.516006
21328.125000	-123.565536
21351.562500	-123.544304
21375.000000	-123.397469
21398.437500	-123.472282
21421.875000	-123.479126
21445.312500	-123.444725
21468.750000	-123.461113
21492.187500	-123.397850
21515.625000	-123.367073
21539.062500	-123.357246
21562.500000	-123.438484
21585.937500	-123.433640
21609.375000	-123.407036
21632.812500	-123.441299
21656.250000	-123.433594
21679.687500	-123.293495
21703.125000	-123.231270
21726.562500	-123.332680
21750.000000	-123.416573
21773.437500	-123.401268
21796.875000	-123.367599
21820.312500	-123.366615
21843.750000	-123.347359
21867.187500	-123.354088
21890.625000	-123.347740
21914.062500	-123.334534
21937.500000	-123.394394
21960.937500	-123.431702
21984.375000	-123.392044
22007.812500	-123.339851
22031.250000	-123.322258
22054.687500	-123.381721
22078.125000	-123.348648
22101.562500	-123.283318
22125.000000	-123.161613
22148.437500	-122.932976
22171.875000	-122.946770
22195.312500	-122.915329
22218.750000	-122.697075
22242.187500	-122.454567
22265.625000	-122.233818
22289.062500	-122.283257
22312.500000	-122.198944
22335.937500	-122.163094
22359.375000	-122.196404
22382.812500	-122.239777
22406.250000	-122.316475
22429.687500	-122.310272
22453.125000	-122.394882
22476.562500	-122.312737
22500.000000	-121.994873
22523.437500	-122.448509
22546.875000	-122.561913
22570.312500	-122.598526
22593.750000	-122.631683
22617.187500	-122.552177
22640.625000	-122.515533
22664.062500	-122.517517
22687.500000	-122.469719
22710.937500	-122.368523
22734.375000	-122.196022
22757.812500	-122.104042
22781.250000	-122.155411
22804.687500	-122.141640
22828.125000	-122.223083
22851.562500	-122.142609
22875.000000	-121.904625
22898.437500	-121.945518
22921.875000	-122.216957
22945.312500	-122.323647
22968.750000	-122.254715
22992.187500	-122.355423
23015.625000	-122.673386
23039.062500	-122.907692
23062.500000	-122.857590
23085.937500	-122.899666
23109.375000	-122.927597
23132.812500	-123.088722
23156.250000	-123.255066
23179.687500	-123.314209
23203.125000	-123.341156
23226.562500	-123.383080
23250.000000	-123.395279
23273.437500	-123.324455
23296.875000	-123.298111
23320.312500	-123.278610
23343.750000	-123.311623
23367.187500	-123.201126
23390.625000	-123.088402
23414.062500	-123.118286
23437.500000	-123.197479
23460.937500	-123.197578
23484.375000	-123.171188
23507.812500	-123.241051
23531.250000	-123.243271
23554.687500	-123.278351
23578.125000	-123.331245
23601.562500	-123.295670
23625.000000	-123.310112
23648.437500	-123.420113
23671.875000	-123.520058
23695.312500	-123.562065
23718.750000	-123.667068
23742.187500	-123.643631
23765.625000	-123.652077
23789.062500	-123.715378
23812.500000	-123.730865
23835.937500	-123.780457
23859.375000	-123.826340
23882.812500	-123.764282
23906.250000	-123.743774
23929.687500	-123.702682
23953.125000	-123.750641
23976.562500	-123.695251
24000.000000	-123.460327
24023.437500	-123.670479
24046.875000	-123.820427
24070.312500	-123.838280
24093.750000	-123.826134
24117.187500	-123.875542
24140.625000	-123.932159
24164.062500	-123.886497
24187.500000	-123.818138
24210.937500	-123.852211
24234.375000	-123.864159
24257.812500	-123.795654
24281.250000	-123.845520
24304.687500	-123.859604
24328.125000	-123.883423
24351.562500	-123.924828
24375.000000	-123.942139
24398.437500	-123.974663
24421.875000	-123.932854
24445.312500	-123.959114
24468.750000	-123.977562
24492.187500	-123.921890
24515.625000	-123.904709
24539.062500	-123.959473
24562.500000	-123.948914
24585.937500	-123.918961
24609.375000	-123.868996
24632.812500	-123.951019
24656.250000	-123.919693
24679.687500	-123.922508
24703.125000	-123.877357
24726.562500	-123.848358
24750.000000	-123.792870
24773.437500	-123.873901
24796.875000	-123.883896
24820.312500	-123.839554
24843.750000	-123.936729
24867.187500	-123.941460
24890.625000	-123.941574
24914.062500	-123.923683
24937.500000	-124.027069
24960.937500	-123.965317
24984.375000	-123.938766
25007.812500	-123.948975
25031.250000	-123.918694
25054.687500	-123.958351
25078.125000	-123.954834
25101.562500	-123.937073
25125.000000	-124.004379
25148.437500	-123.968369
25171.875000	-123.925804
25195.312500	-123.806564
25218.750000	-123.684898
25242.187500	-123.593025
25265.625000	-123.636749
25289.062500	-123.751244
25312.500000	-123.847580
25335.937500	-123.785873
25359.375000	-123.700058
25382.812500	-123.825806
25406.250000	-123.958595
25429.687500	-123.926643
25453.125000	-123.880630
25476.562500	-123.839325
25500.000000	-123.670326
25523.437500	-123.913513
25546.875000	-123.924690
25570.312500	-124.036598
25593.750000	-124.092827
25617.187500	-123.986656
25640.625000	-123.954338
25664.062500	-124.075127
25687.500000	-124.129143
25710.937500	-124.073494
25734.375000	-124.008217
25757.812500	-124.012299
25781.250000	-123.967606
25804.687500	-124.018600
25828.125000	-124.139542
25851.562500	-124.086510
25875.000000	-124.086746
25898.437500	-124.093864
25921.875000	-124.128082
25945.312500	-124.131073
25968.750000	-124.082420
25992.187500	-124.058136
26015.625000	-124.123497
26039.062500	-124.081505
26062.500000	-124.043167
26085.937500	-124.042725
26109.375000	-124.100174
26132.812500	-123.994049
26156.250000	-124.004929
26179.687500	-124.063118
26203.125000	-124.083450
26226.562500	-124.158829
26250.000000	-124.135551
26273.437500	-124.026573
26296.875000	-124.025284
26320.312500	-124.023041
26343.750000	-124.010170
26367.187500	-123.984749
26390.625000	-123.975182
26414.062500	-124.049355
26437.500000	-124.055519
26460.937500	-124.042030
26484.375000	-124.014603
26507.812500	-124.092697
26531.250000	-124.131996
26554.687500	-124.107559
26578.125000	-124.078148
26601.562500	-124.062622
26625.000000	-124.078781
26648.437500	-124.094833
26671.875000	-124.050514
26695.312500	-124.116035
26718.750000	-124.086189
26742.187500	-124.093918
26765.625000	-124.125885
26789.062500	-124.052513
26812.500000	-124.069878
26835.937500	-124.043015
26859.375000	-124.017448
26882.812500	-124.091599
26906.250000	-124.119987
26929.687500	-124.083656
26953.125000	-124.137924
26976.562500	-124.081558
27000.000000	-124.063377
27023.437500	-124.159744
27046.875000	-124.111847
27070.312500	-124.135567
27093.750000	-124.168800
27117.187500	-124.127808
27140.625000	-124.080788
27164.062500	-124.084610
27187.500000	-124.159546
27210.937500	-124.230690
27234.375000	-124.165154
27257.812500	-124.142349
27281.250000	-124.162384
27304.687500	-124.177971
27328.125000	-124.234940
27351.562500	-124.252388
27375.000000	-124.116005
27398.437500	-124.111420
27421.875000	-124.150391
27445.312500	-124.097404
27468.750000	-124.132271
27492.187500	-124.080040
27515.625000	-124.159904
27539.062500	-124.162239
27562.500000	-124.117096
27585.937500	-124.199585
27609.375000	-124.180862
27632.812500	-124.211266
27656.250000	-124.267830
27679.687500	-124.258781
27703.125000	-124.169533
27726.562500	-124.170578
27750.000000	-124.163544
27773.437500	-124.141830
27796.875000	-124.154762
27820.312500	-124.160004
27843.750000	-124.160339
27867.187500	-124.196312
27890.625000	-124.200584
27914.062500	-124.158211
27937.500000	-124.144600
27960.937500	-124.138550
27984.375000	-124.060707
28007.812500	-124.053864
28031.250000	-124.089462
28054.687500	-124.201431
28078.125000	-124.218346
28101.562500	-124.151688
28125.000000	-124.192627
28148.437500	-124.198517
28171.875000	-124.238533
28195.312500	-124.166710
28218.750000	-124.189224
28242.187500	-124.257942
28265.625000	-124.183937
28289.062500	-124.164024
28312.500000	-124.163109
28335.937500	-124.238586
28359.375000	-124.268616
28382.812500	-124.232819
28406.250000	-124.214348
28429.687500	-124.195938
28453.125000	-124.219299
28476.562500	-124.150215
28500.000000	-124.082054
28523.437500	-124.183273
28546.875000	-124.211563
28570.312500	-124.253342
28593.750000	-124.256218
28617.187500	-124.290436
28640.625000	-124.272682
28664.062500	-124.295250
28687.500000	-124.204582
28710.937500	-124.236237
28734.375000	-124.312363
28757.812500	-124.207695
28781.250000	-124.167076
28804.687500	-124.284241
28828.125000	-124.311012
28851.562500	-124.290962
28875.000000	-124.349907
28898.437500	-124.286003
28921.875000	-124.253380
28945.312500	-124.166405
28968.750000	-124.161850
28992.187500	-124.164566
29015.625000	-124.213730
29039.062500	-124.260757
29062.500000	-124.230858
29085.937500	-124.299911
29109.375000	-124.241135
29132.812500	-124.153320
29156.250000	-124.244286
29179.687500	-124.256447
29203.125000	-124.202858
29226.562500	-124.220100
29250.000000	-124.291862
29273.437500	-124.311485
29296.875000	-124.287140
29320.312500	-124.235802
29343.750000	-124.232414
29367.187500	-124.303604
29390.625000	-124.200378
29414.062500	-123.983505
29437.500000	-124.000702
29460.937500	-123.952179
29484.375000	-124.023277
29507.812500	-124.180824
29531.250000	-124.190773
29554.687500	-124.115257
29578.125000	-124.072525
29601.562500	-124.038979
29625.000000	-124.121834
29648.437500	-124.193634
29671.875000	-124.167595
29695.312500	-124.296883
29718.750000	-124.299828
29742.187500	-124.323425
29765.625000	-124.304802
29789.062500	-124.322601
29812.500000	-124.238426
29835.937500	-124.318939
29859.375000	-124.307259
29882.812500	-124.289078
29906.250000	-124.334579
29929.687500	-124.229683
29953.125000	-124.322716
29976.562500	-124.296242
30000.000000	-124.033539
30023.437500	-124.224533
30046.875000	-124.173698
30070.312500	-124.258690
30093.750000	-124.282463
30117.187500	-124.386185
30140.625000	-124.421326
30164.062500	-124.442162
30187.500000	-124.405273
30210.937500	-124.257294
30234.375000	-124.299255
30257.812500	-124.392647
30281.250000	-124.342445
30304.687500	-124.324715
30328.125000	-124.291496
30351.562500	-124.336891
30375.000000	-124.385681
30398.437500	-124.405861
30421.875000	-124.377296
30445.312500	-124.395126
30468.750000	-124.326988
30492.187500	-124.288513
30515.625000	-124.341187
30539.062500	-124.389442
30562.500000	-124.395447
30585.937500	-124.342964
30609.375000	-124.334801
30632.812500	-124.378212
30656.250000	-124.401466
30679.687500	-124.424873
30703.125000	-124.380943
30726.562500	-124.421341
30750.000000	-124.337906
30773.437500	-124.349358
30796.875000	-124.403587
30820.312500	-124.318810
30843.750000	-124.311890
30867.187500	-124.318092
30890.625000	-124.386719
30914.062500	-124.394295
30937.500000	-124.377098
30960.937500	-124.360962
30984.375000	-124.357651
31007.812500	-124.272697
31031.250000	-124.313217
31054.687500	-124.387337
31078.125000	-124.387825
31101.562500	-124.376564
31125.000000	-124.378502
31148.437500	-124.412010
31171.875000	-124.457886
31195.312500	-124.365479
31218.750000	-124.447708
31242.187500	-124.478798
31265.625000	-124.483337
31289.062500	-124.438980
31312.500000	-124.404655
31335.937500	-124.376678
31359.375000	-124.409859
31382.812500	-124.472664
31406.250000	-124.434532
31429.687500	-124.382751
31453.125000	-124.391960
31476.562500	-124.270523
31500.000000	-123.822777
31523.437500	-124.284149
31546.875000	-124.470688
31570.312500	-124.420128
31593.750000	-124.486954
31617.187500	-124.488129
31640.625000	-124.469223
31664.062500	-124.455505
31687.500000	-124.439690
31710.937500	-124.393982
31734.375000	-124.415077
31757.812500	-124.462112
31781.250000	-124.403145
31804.687500	-124.401390
31828.125000	-124.476265
31851.562500	-124.439041
31875.000000	-124.427361
31898.437500	-124.428917
31921.875000	-124.443527
31945.312500	-124.463104
31968.750000	-124.449371
31992.187500	-124.422745
32015.625000	-124.498474
32039.062500	-124.521912
32062.500000	-124.478699
32085.937500	-124.472298
32109.375000	-124.355042
32132.812500	-124.403503
32156.250000	-124.439972
32179.687500	-124.360229
32203.125000	-124.359352
32226.562500	-124.410347
32250.000000	-124.497520
32273.437500	-124.501503
32296.875000	-124.468033
32320.312500	-124.444572
32343.750000	-124.515114
32367.187500	-124.514191
32390.625000	-124.472054
32414.062500	-124.508202
32437.500000	-124.505600
32460.937500	-124.547600
32484.375000	-124.504066
32507.812500	-124.472702
32531.250000	-124.418350
32554.687500	-124.432640
32578.125000	-124.445282
32601.562500	-124.526787
32625.000000	-124.549904
32648.437500	-124.491249
32671.875000	-124.464111
32695.312500	-124.419678
32718.750000	-124.422760
32742.187500	-124.452515
32765.625000	-124.491295
32789.062500	-124.418999
32812.500000	-124.455940
32835.937500	-124.412224
32859.375000	-124.506699
32882.812500	-124.594917
32906.250000	-124.529663
32929.687500	-124.469315
32953.125000	-124.541077
32976.562500	-124.344299
33000.000000	-123.740479
33023.437500	-124.310173
33046.875000	-124.487801
33070.312500	-124.560318
33093.750000	-124.493195
33117.187500	-124.447189
33140.625000	-124.540306
33164.062500	-124.524200
33187.500000	-124.573151
33210.937500	-124.550644
33234.375000	-124.504448
33257.812500	-124.535065
33281.250000	-124.570206
33304.687500	-124.529907
33328.125000	-124.435692
33351.562500	-124.502777
33375.000000	-124.583717
33398.437500	-124.528267
33421.875000	-124.622932
33445.312500	-124.569832
33468.750000	-124.485405
33492.187500	-124.496475
33515.625000	-124.599892
33539.062500	-124.589752
33562.500000	-124.554199
33585.937500	-124.489189
33609.375000	-124.470413
33632.812500	-124.462662
33656.250000	-124.461502
33679.687500	-124.445793
33703.125000	-124.433434
33726.562500	-124.436470
33750.000000	-124.540062
33773.437500	-124.491409
33796.875000	-124.471115
33820.312500	-124.507126
33843.750000	-124.485695
33867.187500	-124.453644
33890.625000	-124.539925
33914.062500	-124.568321
33937.500000	-124.511322
33960.937500	-124.585320
33984.375000	-124.681641
34007.812500	-124.661308
34031.250000	-124.597733
34054.687500	-124.576912
34078.125000	-124.624268
34101.562500	-124.630028
34125.000000	-124.552711
34148.437500	-124.552414
34171.875000	-124.510201
34195.312500	-124.609482
34218.750000	-124.696693
34242.187500	-124.653534
34265.625000	-124.591415
34289.062500	-124.483109
34312.500000	-124.544807
34335.937500	-124.699890
34359.375000	-124.690697
34382.812500	-124.663170
34406.250000	-124.652519
34429.687500	-124.645836
34453.125000	-124.581749
34476.562500	-124.487709
34500.000000	-124.197739
34523.437500	-124.514488
34546.875000	-124.638100
34570.312500	-124.619469
34593.750000	-124.616806
34617.187500	-124.697128
34640.625000	-124.607689
34664.062500	-124.642273
34687.500000	-124.650047
34710.937500	-124.655708
34734.375000	-124.650124
34757.812500	-124.552322
34781.250000	-124.666725
34804.687500	-124.712936
34828.125000	-124.715904
34851.562500	-124.627304
34875.000000	-124.583359
34898.437500	-124.542725
34921.875000	-124.544891
34945.312500	-124.660301
34968.750000	-124.642754
34992.187500	-124.555862
35015.625000	-124.646980
35039.062500	-124.654129
35062.500000	-124.604950
35085.937500	-124.514328
35109.375000	-124.515594
35132.812500	-124.630417
35156.250000	-124.672264
35179.687500	-124.688042
35203.125000	-124.627983
35226.562500	-124.618332
35250.000000	-124.635735
35273.437500	-124.636330
35296.875000	-124.695137
35320.312500	-124.689606
35343.750000	-124.679665
35367.187500	-124.620079
35390.625000	-124.613388
35414.062500	-124.734619
35437.500000	-124.653542
35460.937500	-124.660629
35484.375000	-124.699768
35507.812500	-124.718094
35531.250000	-124.698677
35554.687500	-124.715775
35578.125000	-124.674309
35601.562500	-124.683113
35625.000000	-124.660263
35648.437500	-124.648598
35671.875000	-124.678604
35695.312500	-124.595062
35718.750000	-124.683838
35742.187500	-124.734367
35765.625000	-124.729378
35789.062500	-124.668564
35812.500000	-124.668610
35835.937500	-124.673645
35859.375000	-124.761711
35882.812500	-124.744560
35906.250000	-124.651825
35929.687500	-124.718994
35953.125000	-124.729202
35976.562500	-124.657974
36000.000000	-124.634003
36023.437500	-124.692314
36046.875000	-124.739548
36070.312500	-124.798004
36093.750000	-124.790581
36117.187500	-124.748680
36140.625000	-124.715324
36164.062500	-124.769554
36187.500000	-124.745850
36210.937500	-124.746376
36234.375000	-124.791229
36257.812500	-124.818993
36281.250000	-124.719406
36304.687500	-124.656517
36328.125000	-124.706795
36351.562500	-124.682854
36375.000000	-124.695679
36398.437500	-124.847458
36421.875000	-124.727348
36445.312500	-124.700180
36468.750000	-124.716423
36492.187500	-124.737335
36515.625000	-124.694725
36539.062500	-124.688965
36562.500000	-124.772774
36585.937500	-124.833092
36609.375000	-124.748764
36632.812500	-124.688774
36656.250000	-124.771446
36679.687500	-124.763680
36703.125000	-124.783577
36726.562500	-124.746971
36750.000000	-124.808235
36773.437500	-124.846199
36796.875000	-124.845963
36820.312500	-124.811165
36843.750000	-124.735199
36867.187500	-124.757790
36890.625000	-124.864784
36914.062500	-124.799927
36937.500000	-124.766136
36960.937500	-124.774620
36984.375000	-124.789032
37007.812500	-124.796745
37031.250000	-124.788017
37054.687500	-124.816353
37078.125000	-124.800995
37101.562500	-124.798439
37125.000000	-124.780762
37148.437500	-124.710480
37171.875000	-124.725044
37195.312500	-124.876373
37218.750000	-124.873604
37242.187500	-124.847832
37265.625000	-124.794441
37289.062500	-124.771736
37312.500000	-124.845604
37335.937500	-124.777969
37359.375000	-124.816147
37382.812500	-124.845261
37406.250000	-124.839386
37429.687500	-124.849213
37453.125000	-124.821571
37476.562500	-124.799149
37500.000000	-124.806389
37523.437500	-124.841988
37546.875000	-124.833389
37570.312500	-124.756813
37593.750000	-124.757370
37617.187500	-124.750893
37640.625000	-124.779579
37664.062500	-124.767326
37687.500000	-124.765244
37710.937500	-124.771393
37734.375000	-124.710419
37757.812500	-124.752655
37781.250000	-124.716576
37804.687500	-124.766533
37828.125000	-124.743568
37851.562500	-124.716309
37875.000000	-124.704170
37898.437500	-124.658203
37921.875000	-124.693634
37945.312500	-124.786354
37968.750000	-124.758667
37992.187500	-124.710175
38015.625000	-124.687859
38039.062500	-124.630600
38062.500000	-124.542999
38085.937500	-124.520592
38109.375000	-124.515259
38132.812500	-124.477310
38156.250000	-124.332031
38179.687500	-124.379929
38203.125000	-124.263313
38226.562500	-124.070114
38250.000000	-123.789230
38273.437500	-123.116180
38296.875000	-122.635262
38320.312500	-121.894028
38343.750000	-121.310043
38367.187500	-120.917145
38390.625000	-120.585648
38414.062500	-121.432327
38437.500000	-121.987083
38460.937500	-121.959198
38484.375000	-121.597092
38507.812500	-121.470505
38531.250000	-121.956291
38554.687500	-122.083038
38578.125000	-122.385765
38601.562500	-122.548981
38625.000000	-122.608635
38648.437500	-122.913994
38671.875000	-123.048637
38695.312500	-123.094246
38718.750000	-123.316818
38742.187500	-123.600235
38765.625000	-123.563911
38789.062500	-123.636971
38812.500000	-123.698082
38835.937500	-123.789192
38859.375000	-123.873215
38882.812500	-123.885818
38906.250000	-123.966522
38929.687500	-123.969940
38953.125000	-123.999588
38976.562500	-124.205513
39000.000000	-124.214813
39023.437500	-124.526604
39046.875000	-124.620628
39070.312500	-124.625763
39093.750000	-124.642235
39117.187500	-124.705330
39140.625000	-124.571053
39164.062500	-124.643448
39187.500000	-124.706711
39210.937500	-124.683136
39234.375000	-124.620544
39257.812500	-124.628471
39281.250000	-124.766701
39304.687500	-124.704521
39328.125000	-124.712868
39351.562500	-124.755775
39375.000000	-124.850792
39398.437500	-124.834862
39421.875000	-124.788895
39445.312500	-124.773819
39468.750000	-124.746429
39492.187500	-124.733475
39515.625000	-124.770096
39539.062500	-124.796272
39562.500000	-124.821785
39585.937500	-124.929993
39609.375000	-124.915962
39632.812500	-124.835762
39656.250000	-124.779892
39679.687500	-124.840714
39703.125000	-124.822014
39726.562500	-124.840775
39750.000000	-124.856766
39773.437500	-124.871437
39796.875000	-124.802834
39820.312500	-124.832016
39843.750000	-124.826416
39867.187500	-124.807762
39890.625000	-124.928886
39914.062500	-124.881973
39937.500000	-124.842026
39960.937500	-124.844261
39984.375000	-124.912956
40007.812500	-124.938805
40031.250000	-124.875633
40054.687500	-124.832924
40078.125000	-124.881767
40101.562500	-124.960007
40125.000000	-124.961403
40148.437500	-124.889214
40171.875000	-124.992142
40195.312500	-124.954994
40218.750000	-124.895584
40242.187500	-124.482086
40265.625000	-122.801353
40289.062500	-124.164749
40312.500000	-125.017899
40335.937500	-124.987129
40359.375000	-125.036697
40382.812500	-125.047310
40406.250000	-124.960648
40429.687500	-124.906960
40453.125000	-124.945198
40476.562500	-124.814743
40500.000000	-124.524315
40523.437500	-124.860817
40546.875000	-124.971336
40570.312500	-124.939148
40593.750000	-124.945740
40617.187500	-124.876541
40640.625000	-124.919693
40664.062500	-124.991470
40687.500000	-124.995552
40710.937500	-124.890778
40734.375000	-124.896080
40757.812500	-124.987648
40781.250000	-125.003441
40804.687500	-124.933861
40828.125000	-124.927498
40851.562500	-124.955086
40875.000000	-124.916122
40898.437500	-124.969955
40921.875000	-124.965424
40945.312500	-124.978844
40968.750000	-125.021721
40992.187500	-124.965698
41015.625000	-124.947487
41039.062500	-125.034050
41062.500000	-125.109352
41085.937500	-125.098373
41109.375000	-124.975090
41132.812500	-124.965034
41156.250000	-125.031898
41179.687500	-125.058121
41203.125000	-125.056587
41226.562500	-125.040901
41250.000000	-125.153557
41273.437500	-125.108559
41296.875000	-125.007820
41320.312500	-125.055595
41343.750000	-125.091682
41367.187500	-125.072914
41390.625000	-125.148590
41414.062500	-125.158394
41437.500000	-125.149750
41460.937500	-125.117950
41484.375000	-125.109451
41507.812500	-125.092003
41531.250000	-125.130608
41554.687500	-125.149017
41578.125000	-125.198639
41601.562500	-125.149033
41625.000000	-125.045006
41648.437500	-125.108612
41671.875000	-125.173424
41695.312500	-125.186974
41718.750000	-125.149780
41742.187500	-125.074036
41765.625000	-125.082504
41789.062500	-125.171158
41812.500000	-125.172577
41835.937500	-125.173897
41859.375000	-125.201469
41882.812500	-125.233391
41906.250000	-125.255020
41929.687500	-125.240929
41953.125000	-125.215446
41976.562500	-124.991180
42000.000000	-124.660912
42023.437500	-125.090057
42046.875000	-125.139694
42070.312500	-125.115791
42093.750000	-125.210693
42117.187500	-125.252243
42140.625000	-125.196983
42164.062500	-125.298592
42187.500000	-125.357368
42210.937500	-125.324730
42234.375000	-125.239975
42257.812500	-125.306351
42281.250000	-125.314766
42304.687500	-125.269257
42328.125000	-125.347496
42351.562500	-125.344528
42375.000000	-125.289635
42398.437500	-125.322281
42421.875000	-125.354172
42445.312500	-125.317108
42468.750000	-125.348465
42492.187500	-125.421471
42515.625000	-125.379524
42539.062500	-125.426704
42562.500000	-125.495926
42585.937500	-125.482170
42609.375000	-125.476517
42632.812500	-125.428589
42656.250000	-125.466904
42679.687500	-125.392555
42703.125000	-125.296394
42726.562500	-125.347961
42750.000000	-125.414627
42773.437500	-125.489250
42796.875000	-125.467117
42820.312500	-125.449928
42843.750000	-125.452187
42867.187500	-125.455826
42890.625000	-125.539894
42914.062500	-125.566978
42937.500000	-125.513191
42960.937500	-125.534264
42984.375000	-125.589767
43007.812500	-125.602859
43031.250000	-125.581848
43054.687500	-125.632271
43078.125000	-125.586594
43101.562500	-125.544487
43125.000000	-125.587769
43148.437500	-125.577530
43171.875000	-125.575661
43195.312500	-125.541687
43218.750000	-125.589348
43242.187500	-125.562180
43265.625000	-125.621941
43289.062500	-125.665588
43312.500000	-125.713806
43335.937500	-125.768471
43359.375000	-125.779831
43382.812500	-125.650864
43406.250000	-125.710770
43429.687500	-125.802841
43453.125000	-125.761818
43476.562500	-125.620621
43500.000000	-125.199089
43523.437500	-125.587532
43546.875000	-125.720360
43570.312500	-125.753815
43593.750000	-125.816750
43617.187500	-125.789062
43640.625000	-125.743919
43664.062500	-125.812874
43687.500000	-125.947861
43710.937500	-125.921959
43734.375000	-125.945976
43757.812500	-125.942459
43781.250000	-125.950882
43804.687500	-125.905197
43828.125000	-125.928902
43851.562500	-125.966934
43875.000000	-125.956612
43898.437500	-125.936737
43921.875000	-125.962730
43945.312500	-126.007362
43968.750000	-125.997231
43992.187500	-125.986282
44015.625000	-126.032700
44039.062500	-126.121658
44062.500000	-126.045219
44085.937500	-126.018280
44109.375000	-126.087303
44132.812500	-126.140587
44156.250000	-126.245880
44179.687500	-126.193222
44203.125000	-126.179817
44226.562500	-126.243927
44250.000000	-126.225288
44273.437500	-126.212860
44296.875000	-126.248703
44320.312500	-126.197075
44343.750000	-126.253555
44367.187500	-126.315430
44390.625000	-126.279549
44414.062500	-126.325150
44437.500000	-126.401237
44460.937500	-126.319031
44484.375000	-126.376694
44507.812500	-126.400475
44531.250000	-126.392715
44554.687500	-126.381905
44578.125000	-126.396049
44601.562500	-126.476738
44625.000000	-126.506134
44648.437500	-126.480339
44671.875000	-126.518661
44695.312500	-126.455307
44718.750000	-126.413864
44742.187500	-126.520973
44765.625000	-126.627777
44789.062500	-126.667671
44812.500000	-126.588959
44835.937500	-126.572990
44859.375000	-126.462029
44882.812500	-126.507584
44906.250000	-126.600410
44929.687500	-126.647903
44953.125000	-126.701225
44976.562500	-126.601166
45000.000000	-126.252937
45023.437500	-126.496574
45046.875000	-126.653648
45070.312500	-126.760735
45093.750000	-126.755051
45117.187500	-126.753632
45140.625000	-126.803696
45164.062500	-126.814079
45187.500000	-126.814491
45210.937500	-126.853745
45234.375000	-126.918037
45257.812500	-126.940964
45281.250000	-127.061584
45304.687500	-126.976631
45328.125000	-126.908722
45351.562500	-126.910805
45375.000000	-126.907791
45398.437500	-126.989784
45421.875000	-127.083237
45445.312500	-127.128075
45468.750000	-127.094986
45492.187500	-127.134804
45515.625000	-127.132401
45539.062500	-127.153221
45562.500000	-127.111259
45585.937500	-127.103912
45609.375000	-127.151085
45632.812500	-127.278694
45656.250000	-127.286369
45679.687500	-127.244286
45703.125000	-127.236420
45726.562500	-127.302986
45750.000000	-127.343857
45773.437500	-127.323143
45796.875000	-127.352821
45820.312500	-127.401192
45843.750000	-127.405266
45867.187500	-127.483444
45890.625000	-127.486992
45914.062500	-127.388687
45937.500000	-127.458481
45960.937500	-127.517418
45984.375000	-127.478226
46007.812500	-127.535416
46031.250000	-127.644783
46054.687500	-127.588234
46078.125000	-127.687088
46101.562500	-127.779762
46125.000000	-127.784973
46148.437500	-127.737183
46171.875000	-127.662857
46195.312500	-127.713074
46218.750000	-127.759163
46242.187500	-127.846649
46265.625000	-127.909637
46289.062500	-127.862244
46312.500000	-127.886734
46335.937500	-127.923813
46359.375000	-127.883469
46382.812500	-127.854851
46406.250000	-127.868370
46429.687500	-127.871040
46453.125000	-127.895149
46476.562500	-127.837196
46500.000000	-127.685669
46523.437500	-127.875801
46546.875000	-128.040970
46570.312500	-127.992943
46593.750000	-127.962578
46617.187500	-127.981163
46640.625000	-128.060959
46664.062500	-128.075104
46687.500000	-128.077744
46710.937500	-128.167725
46734.375000	-128.219345
46757.812500	-128.174088
46781.250000	-128.144226
46804.687500	-128.062988
46828.125000	-128.162415
46851.562500	-128.200043
46875.000000	-128.187805
46898.437500	-128.229950
46921.875000	-128.351608
46945.312500	-128.353348
46968.750000	-128.280731
46992.187500	-128.235275
47015.625000	-128.255203
47039.062500	-128.286011
47062.500000	-128.264511
47085.937500	-128.322205
47109.375000	-128.342087
47132.812500	-128.398544
47156.250000	-128.432129
47179.687500	-128.401291
47203.125000	-128.352676
47226.562500	-128.363968
47250.000000	-128.423965
47273.437500	-128.488617
47296.875000	-128.527954
47320.312500	-128.533279
47343.750000	-128.410645
47367.187500	-128.451096
47390.625000	-128.513382
47414.062500	-128.535233
47437.500000	-128.471680
47460.937500	-128.545273
47484.375000	-128.577927
47507.812500	-128.563232
47531.250000	-128.529724
47554.687500	-128.578812
47578.125000	-128.585663
47601.562500	-128.573471
47625.000000	-128.582458
47648.437500	-128.552719
47671.875000	-128.566696
47695.312500	-128.596771
47718.750000	-128.630844
47742.187500	-128.626602
47765.625000	-128.595779
47789.062500	-128.546173
47812.500000	-128.631470
47835.937500	-128.555298
47859.375000	-128.550629
47882.812500	-128.633621
47906.250000	-128.629684
47929.687500	-128.676468
47953.125000	-128.673950
47976.562500	-128.571411
