주파수 (Hz)	레벨 (dB)
23.437500	-98.648376
46.875000	-85.306938
70.312500	-70.615112
93.750000	-63.308365
117.187500	-60.234119
140.625000	-57.002506
164.062500	-56.149429
187.500000	-52.394184
210.937500	-51.873863
234.375000	-51.794308
257.812500	-50.872192
281.250000	-52.632957
304.687500	-53.025974
328.125000	-50.798542
351.562500	-48.576260
375.000000	-50.057796
398.437500	-50.220192
421.875000	-53.062737
445.312500	-51.103111
468.750000	-48.425709
492.187500	-52.103161
515.625000	-52.046280
539.062500	-53.065063
562.500000	-55.728886
585.937500	-51.174450
609.375000	-50.421566
632.812500	-50.032234
656.250000	-48.789200
679.687500	-49.081051
703.125000	-48.257271
726.562500	-54.301311
750.000000	-62.735474
773.437500	-58.298393
796.875000	-57.658779
820.312500	-59.320904
843.750000	-60.296764
867.187500	-55.227573
890.625000	-53.085888
914.062500	-61.099068
937.500000	-63.409809
960.937500	-67.064758
984.375000	-63.356586
1007.812500	-65.561554
1031.250000	-66.208519
1054.687500	-63.233757
1078.125000	-68.317352
1101.562500	-70.051880
1125.000000	-71.748550
1148.437500	-66.134216
1171.875000	-55.578480
1195.312500	-55.876953
1218.750000	-66.327385
1242.187500	-61.093182
1265.625000	-61.512058
1289.062500	-67.473785
1312.500000	-63.751549
1335.937500	-65.444817
1359.375000	-70.581406
1382.812500	-66.554573
1406.250000	-63.452396
1429.687500	-67.982704
1453.125000	-72.138351
1476.562500	-70.103386
1500.000000	-70.462883
1523.437500	-74.739128
1546.875000	-70.710655
1570.312500	-63.631573
1593.750000	-64.314278
1617.187500	-74.972565
1640.625000	-73.554680
1664.062500	-68.585907
1687.500000	-70.401596
1710.937500	-77.675804
1734.375000	-75.637207
1757.812500	-68.984871
1781.250000	-66.320618
1804.687500	-72.727036
1828.125000	-76.189659
1851.562500	-72.799934
1875.000000	-68.530640
1898.437500	-69.957108
1921.875000	-78.092392
1945.312500	-76.883957
1968.750000	-71.101616
1992.187500	-69.129700
2015.625000	-73.659798
2039.062500	-81.089813
2062.500000	-78.906815
2085.937500	-74.204987
2109.375000	-71.298508
2132.812500	-73.230064
2156.250000	-81.557449
2179.687500	-81.436790
2203.125000	-77.040581
2226.562500	-75.437874
2250.000000	-78.741486
2273.437500	-84.308601
2296.875000	-82.988792
2320.312500	-77.826263
2343.750000	-76.204887
2367.187500	-71.872482
2390.625000	-71.736496
2414.062500	-79.748665
2437.500000	-84.926155
2460.937500	-82.202850
2484.375000	-77.865601
2507.812500	-76.223450
2531.250000	-74.883469
2554.687500	-80.783691
2578.125000	-84.895538
2601.562500	-84.330559
2625.000000	-85.505447
2648.437500	-77.116943
2671.875000	-72.814148
2695.312500	-76.581429
2718.750000	-86.909378
2742.187500	-87.636826
2765.625000	-84.772720
2789.062500	-80.663231
2812.500000	-78.960617
2835.937500	-73.846291
2859.375000	-76.736732
2882.812500	-85.004982
2906.250000	-84.475945
2929.687500	-83.541664
2953.125000	-81.510254
2976.562500	-80.813927
3000.000000	-79.050598
3023.437500	-79.155472
3046.875000	-87.139809
3070.312500	-86.994629
3093.750000	-79.227013
3117.187500	-81.463661
3140.625000	-82.189102
3164.062500	-80.545601
3187.500000	-76.997215
3210.937500	-79.282654
3234.375000	-85.358109
3257.812500	-91.749283
3281.250000	-82.978027
3304.687500	-81.891228
3328.125000	-84.282532
3351.562500	-83.817200
3375.000000	-83.572342
3398.437500	-84.451393
3421.875000	-87.042725
3445.312500	-92.749046
3468.750000	-91.990898
3492.187500	-89.619301
3515.625000	-90.679237
3539.062500	-88.266457
3562.500000	-84.416008
3585.937500	-84.157928
3609.375000	-84.707207
3632.812500	-88.589218
3656.250000	-94.157990
3679.687500	-97.763710
3703.125000	-98.486221
3726.562500	-97.244232
3750.000000	-88.944473
3773.437500	-85.850510
3796.875000	-89.928131
3820.312500	-88.100067
3843.750000	-85.532356
3867.187500	-87.154846
3890.625000	-95.062271
3914.062500	-93.998459
3937.500000	-92.341347
3960.937500	-95.096687
3984.375000	-93.049667
4007.812500	-90.381111
4031.250000	-91.909760
4054.687500	-86.717293
4078.125000	-86.412476
4101.562500	-89.170731
4125.000000	-95.034927
4148.437500	-97.972748
4171.875000	-93.298943
4195.312500	-91.939728
4218.750000	-90.316757
4242.187500	-84.999718
4265.625000	-88.235641
4289.062500	-91.504570
4312.500000	-87.503838
4335.937500	-87.037247
4359.375000	-89.633263
4382.812500	-97.493286
4406.250000	-103.112144
4429.687500	-100.246788
4453.125000	-97.477844
4476.562500	-92.973206
4500.000000	-87.330032
4523.437500	-86.261375
4546.875000	-90.299492
4570.312500	-96.305267
4593.750000	-99.875282
4617.187500	-101.013245
4640.625000	-99.877396
4664.062500	-98.214828
4687.500000	-99.033554
4710.937500	-101.013840
4734.375000	-96.372879
4757.812500	-91.487701
4781.250000	-91.502449
4804.687500	-97.600555
4828.125000	-94.206734
4851.562500	-91.190994
4875.000000	-93.116737
4898.437500	-96.684906
4921.875000	-96.814774
4945.312500	-98.831253
4968.750000	-103.908226
4992.187500	-105.966660
5015.625000	-104.535019
5039.062500	-100.260178
5062.500000	-97.591522
5085.937500	-99.289253
5109.375000	-104.072678
5132.812500	-99.960876
5156.250000	-95.843369
5179.687500	-96.573639
5203.125000	-98.778534
5226.562500	-97.100533
5250.000000	-94.742455
5273.437500	-97.182617
5296.875000	-103.689926
5320.312500	-106.040154
5343.750000	-102.598854
5367.187500	-98.634850
5390.625000	-98.166344
5414.062500	-98.326080
5437.500000	-96.307465
5460.937500	-96.028801
5484.375000	-93.073189
5507.812500	-93.980461
5531.250000	-99.535011
5554.687500	-95.627785
5578.125000	-97.559052
5601.562500	-103.022469
5625.000000	-102.066895
5648.437500	-104.700111
5671.875000	-101.214851
5695.312500	-97.633575
5718.750000	-93.041985
5742.187500	-90.221458
5765.625000	-93.382500
5789.062500	-102.599426
5812.500000	-92.780670
5835.937500	-89.552834
5859.375000	-94.547066
5882.812500	-101.019814
5906.250000	-99.708260
5929.687500	-100.399315
5953.125000	-101.793114
5976.562500	-101.952759
6000.000000	-104.435699
6023.437500	-107.420616
6046.875000	-106.196457
6070.312500	-100.830437
6093.750000	-97.730156
6117.187500	-99.924484
6140.625000	-101.625534
6164.062500	-96.565315
6187.500000	-92.153778
6210.937500	-93.691124
6234.375000	-101.673607
6257.812500	-107.231102
6281.250000	-104.283302
6304.687500	-104.389000
6328.125000	-107.734039
6351.562500	-108.916718
6375.000000	-103.601944
6398.437500	-102.492302
6421.875000	-106.742691
6445.312500	-107.293411
6468.750000	-102.256012
6492.187500	-100.898468
6515.625000	-101.938568
6539.062500	-106.981506
6562.500000	-107.401642
6585.937500	-101.742668
6609.375000	-99.473862
6632.812500	-103.275177
6656.250000	-103.889397
6679.687500	-97.646904
6703.125000	-99.446671
6726.562500	-103.237930
6750.000000	-105.725983
6773.437500	-105.323936
6796.875000	-106.907066
6820.312500	-107.596146
6843.750000	-110.517021
6867.187500	-114.476013
6890.625000	-112.416580
6914.062500	-111.647926
6937.500000	-114.389023
6960.937500	-114.124756
6984.375000	-110.728317
7007.812500	-107.198875
7031.250000	-102.594673
7054.687500	-103.660332
7078.125000	-110.016548
7101.562500	-114.320648
7125.000000	-109.437233
7148.437500	-110.551308
7171.875000	-115.101723
7195.312500	-108.247910
7218.750000	-106.818398
7242.187500	-114.144714
7265.625000	-114.282005
7289.062500	-113.124893
7312.500000	-113.648613
7335.937500	-113.687508
7359.375000	-113.939186
7382.812500	-116.435631
7406.250000	-114.672890
7429.687500	-112.611710
7453.125000	-104.534500
7476.562500	-100.321754
7500.000000	-101.801224
7523.437500	-103.193436
7546.875000	-107.587669
7570.312500	-110.455956
7593.750000	-108.383026
7617.187500	-105.643837
7640.625000	-108.185570
7664.062500	-110.027290
7687.500000	-106.025108
7710.937500	-108.913986
7734.375000	-112.060623
7757.812500	-113.385574
7781.250000	-112.643745
7804.687500	-116.075241
7828.125000	-115.186867
7851.562500	-110.631073
7875.000000	-111.554840
7898.437500	-115.208374
7921.875000	-117.464211
7945.312500	-117.405128
7968.750000	-114.720512
7992.187500	-108.437546
8015.625000	-107.825508
8039.062500	-112.210632
8062.500000	-114.366013
8085.937500	-115.099785
8109.375000	-115.085793
8132.812500	-117.118019
8156.250000	-117.811035
8179.687500	-115.832565
8203.125000	-114.661407
8226.562500	-115.068138
8250.000000	-114.221153
8273.437500	-115.302917
8296.875000	-116.545952
8320.312500	-110.415573
8343.750000	-108.982346
8367.187500	-112.532372
8390.625000	-115.171173
8414.062500	-115.163651
8437.500000	-111.166008
8460.937500	-110.491119
8484.375000	-111.327652
8507.812500	-109.146835
8531.250000	-106.589836
8554.687500	-107.427490
8578.125000	-110.022964
8601.562500	-115.332298
8625.000000	-116.246147
8648.437500	-115.841972
8671.875000	-117.284645
8695.312500	-118.110077
8718.750000	-118.559029
8742.187500	-117.792419
8765.625000	-118.040375
8789.062500	-118.582779
8812.500000	-116.152481
8835.937500	-114.285278
8859.375000	-116.198097
8882.812500	-117.631744
8906.250000	-117.542206
8929.687500	-117.839066
8953.125000	-119.764320
8976.562500	-118.554237
9000.000000	-111.532104
9023.437500	-108.184258
9046.875000	-110.891357
9070.312500	-115.883965
9093.750000	-115.762299
9117.187500	-115.107582
9140.625000	-118.392754
9164.062500	-120.472939
9187.500000	-118.578514
9210.937500	-116.030472
9234.375000	-114.687881
9257.812500	-117.483566
9281.250000	-119.891663
9304.687500	-120.480225
9328.125000	-120.994446
9351.562500	-119.506401
9375.000000	-115.759209
9398.437500	-116.605003
9421.875000	-117.035149
9445.312500	-115.232254
9468.750000	-116.808968
9492.187500	-118.717827
9515.625000	-121.007912
9539.062500	-121.529022
9562.500000	-118.564110
9585.937500	-115.453773
9609.375000	-116.005295
9632.812500	-116.082054
9656.250000	-113.708336
9679.687500	-114.490089
9703.125000	-118.370247
9726.562500	-119.312347
9750.000000	-118.255363
9773.437500	-117.194550
9796.875000	-117.657829
9820.312500	-119.387375
9843.750000	-119.124779
9867.187500	-120.120377
9890.625000	-118.442062
9914.062500	-118.328728
9937.500000	-117.924210
9960.937500	-118.876251
9984.375000	-117.577629
10007.812500	-117.518227
10031.250000	-115.219048
10054.687500	-114.172089
10078.125000	-115.848145
10101.562500	-119.437180
10125.000000	-121.280701
10148.437500	-120.124382
10171.875000	-120.338478
10195.312500	-119.008736
10218.750000	-118.210548
10242.187500	-119.072418
10265.625000	-120.102707
10289.062500	-121.824547
10312.500000	-121.476837
10335.937500	-120.138168
10359.375000	-118.171761
10382.812500	-117.489700
10406.250000	-114.026459
10429.687500	-113.379883
10453.125000	-113.488693
10476.562500	-116.279610
10500.000000	-120.116707
10523.437500	-119.241158
10546.875000	-120.480942
10570.312500	-122.727081
10593.750000	-124.696594
10617.187500	-123.508736
10640.625000	-119.760628
10664.062500	-118.614594
10687.500000	-120.845139
10710.937500	-121.853287
10734.375000	-120.359055
10757.812500	-120.448730
10781.250000	-119.695328
10804.687500	-115.914406
10828.125000	-117.236877
10851.562500	-121.170006
10875.000000	-121.788231
10898.437500	-121.852005
10921.875000	-123.501152
10945.312500	-122.464478
10968.750000	-122.283783
10992.187500	-123.951225
11015.625000	-122.282074
11039.062500	-119.865761
11062.500000	-120.636078
11085.937500	-122.843277
11109.375000	-121.811790
11132.812500	-117.317436
11156.250000	-116.688728
11179.687500	-118.711182
11203.125000	-116.456718
11226.562500	-117.562035
11250.000000	-120.423950
11273.437500	-120.951035
11296.875000	-121.924194
11320.312500	-120.917946
11343.750000	-120.910187
11367.187500	-123.569687
11390.625000	-124.231430
11414.062500	-121.558357
11437.500000	-117.833878
11460.937500	-121.370171
11484.375000	-125.870125
11507.812500	-125.161697
11531.250000	-125.847923
11554.687500	-126.554909
11578.125000	-126.566826
11601.562500	-126.782692
11625.000000	-126.840530
11648.437500	-127.003227
11671.875000	-126.941711
11695.312500	-126.506882
11718.750000	-124.513329
11742.187500	-123.147720
11765.625000	-125.124489
11789.062500	-125.936287
11812.500000	-126.032166
11835.937500	-126.826019
11859.375000	-127.257256
11882.812500	-126.447655
11906.250000	-126.130974
11929.687500	-127.182304
11953.125000	-127.379921
11976.562500	-126.253250
12000.000000	-125.089828
12023.437500	-124.867523
12046.875000	-124.946297
12070.312500	-125.577965
12093.750000	-124.585091
12117.187500	-124.952843
12140.625000	-125.940346
12164.062500	-125.174934
12187.500000	-125.751465
12210.937500	-126.983398
12234.375000	-123.828072
12257.812500	-123.611671
12281.250000	-126.908569
12304.687500	-126.040176
12328.125000	-126.778908
12351.562500	-127.058243
12375.000000	-125.673759
12398.437500	-126.316521
12421.875000	-127.359352
12445.312500	-127.262085
12468.750000	-126.767982
12492.187500	-127.450317
12515.625000	-127.476532
12539.062500	-126.926811
12562.500000	-126.806526
12585.937500	-127.194038
12609.375000	-127.147644
12632.812500	-127.310608
12656.250000	-127.710976
12679.687500	-127.906662
12703.125000	-127.807480
12726.562500	-127.907852
12750.000000	-128.117752
12773.437500	-128.047516
12796.875000	-127.181999
12820.312500	-126.282280
12843.750000	-127.139122
12867.187500	-127.634575
12890.625000	-127.817596
12914.062500	-127.827232
12937.500000	-127.692810
12960.937500	-127.462143
12984.375000	-127.489677
13007.812500	-127.426987
13031.250000	-127.241165
13054.687500	-127.277924
13078.125000	-127.295357
13101.562500	-127.124184
13125.000000	-127.244606
13148.437500	-127.150406
13171.875000	-127.411552
13195.312500	-126.469406
13218.750000	-126.114471
13242.187500	-127.411453
13265.625000	-127.856110
13289.062500	-127.938904
13312.500000	-127.963646
13335.937500	-127.713882
13359.375000	-127.485703
13382.812500	-127.450623
13406.250000	-127.433891
13429.687500	-127.359024
13453.125000	-126.849602
13476.562500	-124.161407
13500.000000	-123.354454
13523.437500	-123.282295
13546.875000	-126.379608
13570.312500	-127.393150
13593.750000	-127.745544
13617.187500	-127.976799
13640.625000	-128.166153
13664.062500	-127.756989
13687.500000	-126.996361
13710.937500	-127.502327
13734.375000	-128.108826
13757.812500	-127.994858
13781.250000	-128.244705
13804.687500	-128.071396
13828.125000	-128.109802
13851.562500	-128.102020
13875.000000	-128.226059
13898.437500	-128.319199
13921.875000	-128.363037
13945.312500	-128.220901
13968.750000	-127.966217
13992.187500	-127.994453
14015.625000	-127.535629
14039.062500	-126.075401
14062.500000	-126.614403
14085.937500	-127.651169
14109.375000	-127.650261
14132.812500	-127.653038
14156.250000	-127.625877
14179.687500	-128.114044
14203.125000	-128.288177
14226.562500	-128.450378
14250.000000	-128.375809
14273.437500	-128.410614
14296.875000	-128.287018
14320.312500	-128.127228
14343.750000	-128.042084
14367.187500	-128.111252
14390.625000	-128.339981
14414.062500	-128.350861
14437.500000	-128.233948
14460.937500	-128.257584
14484.375000	-128.375717
14507.812500	-128.404053
14531.250000	-128.200607
14554.687500	-128.136566
14578.125000	-128.312546
14601.562500	-128.516617
14625.000000	-128.477737
14648.437500	-128.080505
14671.875000	-127.841499
14695.312500	-128.168808
14718.750000	-127.823891
14742.187500	-127.344772
14765.625000	-128.020889
14789.062500	-128.376816
14812.500000	-128.147171
14835.937500	-128.285706
14859.375000	-128.483658
14882.812500	-128.406097
14906.250000	-128.433670
14929.687500	-128.449387
14953.125000	-128.458145
14976.562500	-128.450119
15000.000000	-128.367828
15023.437500	-128.390396
15046.875000	-128.343903
15070.312500	-128.293076
15093.750000	-128.388809
15117.187500	-128.314377
15140.625000	-128.402847
15164.062500	-128.395660
15187.500000	-127.977463
15210.937500	-127.905365
15234.375000	-128.282074
15257.812500	-128.448975
15281.250000	-128.481949
15304.687500	-128.625137
15328.125000	-128.737000
15351.562500	-128.603485
15375.000000	-128.368759
15398.437500	-128.473785
15421.875000	-128.489929
15445.312500	-128.461319
15468.750000	-128.290848
15492.187500	-128.316452
15515.625000	-128.439804
15539.062500	-128.473755
15562.500000	-128.464050
15585.937500	-128.504105
15609.375000	-128.345337
15632.812500	-128.231705
15656.250000	-128.383087
15679.687500	-128.485229
15703.125000	-128.454941
15726.562500	-128.298965
15750.000000	-128.392105
15773.437500	-128.482224
15796.875000	-128.369202
15820.312500	-128.364502
15843.750000	-128.384705
15867.187500	-128.312851
15890.625000	-128.254364
15914.062500	-128.379059
15937.500000	-128.407806
15960.937500	-128.123367
15984.375000	-128.007309
16007.812500	-128.059586
16031.250000	-128.191132
16054.687500	-128.337280
16078.125000	-128.267380
16101.562500	-128.411728
16125.000000	-128.503403
16148.437500	-128.430405
16171.875000	-128.502579
16195.312500	-128.489761
16218.750000	-128.529785
16242.187500	-128.504074
16265.625000	-128.509338
16289.062500	-128.453339
16312.500000	-128.529465
16335.937500	-128.530014
16359.375000	-128.524567
16382.812500	-128.489227
16406.250000	-128.458374
16429.687500	-128.486740
16453.125000	-128.629501
16476.562500	-128.577469
16500.000000	-128.529770
16523.437500	-128.562744
16546.875000	-128.625534
16570.312500	-128.590652
16593.750000	-128.571625
16617.187500	-128.485504
16640.625000	-128.506927
16664.062500	-128.617996
16687.500000	-128.554642
16710.937500	-128.529358
16734.375000	-128.570877
16757.812500	-128.569717
16781.250000	-128.589386
16804.687500	-128.630402
16828.125000	-128.519318
16851.562500	-128.568054
16875.000000	-128.600876
16898.437500	-128.544876
16921.875000	-128.589706
16945.312500	-128.621506
16968.750000	-128.601318
16992.187500	-128.599976
17015.625000	-128.557877
17039.062500	-128.513641
17062.500000	-128.514709
17085.937500	-128.496506
17109.375000	-128.539413
17132.812500	-128.545578
17156.250000	-128.459961
17179.687500	-128.456863
17203.125000	-128.502701
17226.562500	-128.446426
17250.000000	-128.150650
17273.437500	-127.907379
17296.875000	-128.239349
17320.312500	-128.308792
17343.750000	-128.477402
17367.187500	-128.574387
17390.625000	-128.534454
17414.062500	-128.518723
17437.500000	-128.482971
17460.937500	-128.484543
17484.375000	-128.539032
17507.812500	-128.460739
17531.250000	-128.521439
17554.687500	-128.531860
17578.125000	-128.565826
17601.562500	-128.538513
17625.000000	-128.482498
17648.437500	-128.550415
17671.875000	-128.604965
17695.312500	-128.531143
17718.750000	-128.591110
17742.187500	-128.581741
17765.625000	-128.512299
17789.062500	-128.561890
17812.500000	-128.676071
17835.937500	-128.649200
17859.375000	-128.581772
17882.812500	-128.575775
17906.250000	-128.608597
17929.687500	-128.637665
17953.125000	-128.667755
17976.562500	-128.601624
18000.000000	-128.455780
18023.437500	-128.462936
18046.875000	-128.564163
18070.312500	-128.599152
18093.750000	-128.574356
18117.187500	-128.568390
18140.625000	-128.592087
18164.062500	-128.646713
18187.500000	-128.591858
18210.937500	-128.574402
18234.375000	-128.600311
18257.812500	-128.540833
18281.250000	-128.602875
18304.687500	-128.569992
18328.125000	-128.549896
18351.562500	-128.565292
18375.000000	-128.488098
18398.437500	-128.425858
18421.875000	-128.473648
18445.312500	-128.571960
18468.750000	-128.501343
18492.187500	-128.469086
18515.625000	-128.515671
18539.062500	-128.525696
18562.500000	-128.330658
18585.937500	-128.030304
18609.375000	-128.055328
18632.812500	-128.203461
18656.250000	-128.166351
18679.687500	-128.359802
18703.125000	-128.421921
18726.562500	-128.422302
18750.000000	-128.517426
18773.437500	-128.579300
18796.875000	-128.586014
18820.312500	-128.613831
18843.750000	-128.591995
18867.187500	-128.631454
18890.625000	-128.569244
18914.062500	-128.625549
18937.500000	-128.600800
18960.937500	-128.524506
18984.375000	-128.503815
19007.812500	-128.626724
19031.250000	-128.578751
19054.687500	-128.523605
19078.125000	-128.478867
19101.562500	-128.482224
19125.000000	-128.490616
19148.437500	-128.416916
19171.875000	-128.386887
19195.312500	-128.425613
19218.750000	-128.364212
19242.187500	-128.226532
19265.625000	-127.891235
19289.062500	-128.107559
19312.500000	-128.386734
19335.937500	-128.300751
19359.375000	-128.393112
19382.812500	-128.384949
19406.250000	-128.384705
19429.687500	-128.394836
19453.125000	-128.447403
19476.562500	-128.407166
19500.000000	-128.320877
19523.437500	-128.404465
19546.875000	-128.401077
19570.312500	-128.530746
19593.750000	-128.563843
19617.187500	-128.391388
19640.625000	-128.390198
19664.062500	-128.374908
19687.500000	-128.463608
19710.937500	-128.515762
19734.375000	-128.558426
19757.812500	-128.551666
19781.250000	-128.570267
19804.687500	-128.461151
19828.125000	-128.451538
19851.562500	-128.522430
19875.000000	-128.511063
19898.437500	-128.475433
19921.875000	-128.503311
19945.312500	-128.384186
19968.750000	-128.349182
19992.187500	-128.414520
20015.625000	-128.426697
20039.062500	-128.460556
20062.500000	-128.551147
20085.937500	-128.512177
20109.375000	-128.379089
20132.812500	-128.102966
20156.250000	-128.452942
20179.687500	-128.533844
20203.125000	-128.474457
20226.562500	-128.514114
20250.000000	-128.527054
20273.437500	-128.553696
20296.875000	-128.538406
20320.312500	-128.485275
20343.750000	-128.401154
20367.187500	-128.488403
20390.625000	-128.504105
20414.062500	-128.482101
20437.500000	-128.544617
20460.937500	-128.433472
20484.375000	-128.439957
20507.812500	-128.470810
20531.250000	-128.442001
20554.687500	-128.465622
20578.125000	-128.528015
20601.562500	-128.508270
20625.000000	-128.492050
20648.437500	-128.483521
20671.875000	-128.481720
20695.312500	-128.450272
20718.750000	-128.401093
20742.187500	-128.460876
20765.625000	-128.518784
20789.062500	-128.468323
20812.500000	-128.443710
20835.937500	-128.464706
20859.375000	-128.384995
20882.812500	-128.458603
20906.250000	-128.493011
20929.687500	-128.470535
20953.125000	-128.490860
20976.562500	-128.516357
21000.000000	-128.566757
21023.437500	-128.474197
21046.875000	-128.496048
21070.312500	-128.487640
21093.750000	-128.453445
21117.187500	-128.488647
21140.625000	-128.546631
21164.062500	-128.536224
21187.500000	-128.526352
21210.937500	-128.422379
21234.375000	-128.483856
21257.812500	-128.411011
21281.250000	-128.445175
21304.687500	-128.486740
21328.125000	-128.503662
21351.562500	-128.461533
21375.000000	-128.436417
21398.437500	-128.466568
21421.875000	-128.471207
21445.312500	-128.521500
21468.750000	-128.498077
21492.187500	-128.497620
21515.625000	-128.503250
21539.062500	-128.487503
21562.500000	-128.483139
21585.937500	-128.526093
21609.375000	-128.487442
21632.812500	-128.400070
21656.250000	-128.483124
21679.687500	-128.519791
21703.125000	-128.523438
21726.562500	-128.506363
21750.000000	-128.527542
21773.437500	-128.473541
21796.875000	-128.437592
21820.312500	-128.481873
21843.750000	-128.414459
21867.187500	-128.443344
21890.625000	-128.527893
21914.062500	-128.468430
21937.500000	-128.487457
21960.937500	-128.434036
21984.375000	-128.449570
22007.812500	-128.414780
22031.250000	-128.418182
22054.687500	-128.412827
22078.125000	-128.344711
22101.562500	-128.382401
22125.000000	-128.433228
22148.437500	-128.437241
22171.875000	-128.419083
22195.312500	-128.424744
22218.750000	-128.439545
22242.187500	-128.459442
22265.625000	-128.441406
22289.062500	-128.355057
22312.500000	-128.417770
22335.937500	-128.455124
22359.375000	-128.425293
22382.812500	-128.411255
22406.250000	-128.358810
22429.687500	-128.364166
22453.125000	-128.370087
22476.562500	-128.390488
22500.000000	-128.377472
22523.437500	-128.405396
22546.875000	-128.367844
22570.312500	-128.414993
22593.750000	-128.422699
22617.187500	-128.432922
22640.625000	-128.412186
22664.062500	-128.449493
22687.500000	-128.378479
22710.937500	-128.382629
22734.375000	-128.359558
22757.812500	-128.369553
22781.250000	-128.454514
22804.687500	-128.417145
22828.125000	-128.409470
22851.562500	-128.260956
22875.000000	-128.244324
22898.437500	-128.371719
22921.875000	-128.466812
22945.312500	-128.428726
22968.750000	-128.466904
22992.187500	-128.374496
23015.625000	-128.324692
23039.062500	-128.387009
23062.500000	-128.407944
23085.937500	-128.373260
23109.375000	-128.369598
23132.812500	-128.387680
23156.250000	-128.413681
23179.687500	-128.454834
23203.125000	-128.472412
23226.562500	-128.415909
23250.000000	-128.299423
23273.437500	-128.302063
23296.875000	-128.415619
23320.312500	-128.483612
23343.750000	-128.440216
23367.187500	-128.371552
23390.625000	-128.356155
23414.062500	-128.406265
23437.500000	-128.383209
23460.937500	-128.422409
23484.375000	-128.409744
23507.812500	-128.311935
23531.250000	-128.313614
23554.687500	-128.363144
23578.125000	-128.424240
23601.562500	-128.401382
23625.000000	-128.365387
23648.437500	-128.408401
23671.875000	-128.353485
23695.312500	-128.295334
23718.750000	-128.317764
23742.187500	-128.298218
23765.625000	-128.289795
23789.062500	-128.306412
23812.500000	-128.350677
23835.937500	-128.423264
23859.375000	-128.419632
23882.812500	-128.374039
23906.250000	-128.274368
23929.687500	-128.248917
23953.125000	-128.242722
23976.562500	-128.342468
24000.000000	-128.354797
24023.437500	-128.378815
24046.875000	-128.355179
24070.312500	-128.364182
24093.750000	-128.366837
24117.187500	-128.325699
24140.625000	-128.336029
24164.062500	-128.315842
24187.500000	-128.334015
24210.937500	-128.333817
24234.375000	-128.306107
24257.812500	-128.385956
24281.250000	-128.353134
24304.687500	-128.345398
24328.125000	-128.327469
24351.562500	-128.272949
24375.000000	-128.265991
24398.437500	-128.288681
24421.875000	-128.369095
24445.312500	-128.410767
24468.750000	-128.314621
24492.187500	-128.312607
24515.625000	-128.340759
24539.062500	-128.349976
24562.500000	-128.315689
24585.937500	-128.349976
24609.375000	-128.371979
24632.812500	-128.307465
24656.250000	-128.297089
24679.687500	-128.338318
24703.125000	-128.278763
24726.562500	-128.249329
24750.000000	-128.299973
24773.437500	-128.289810
24796.875000	-128.309998
24820.312500	-128.300217
24843.750000	-128.294159
24867.187500	-128.339294
24890.625000	-128.313110
24914.062500	-128.272766
24937.500000	-128.246353
24960.937500	-128.229904
24984.375000	-128.304977
25007.812500	-128.285095
25031.250000	-128.241516
25054.687500	-128.342773
25078.125000	-128.293030
25101.562500	-128.279938
25125.000000	-128.346863
25148.437500	-128.291611
25171.875000	-128.221130
25195.312500	-128.275436
25218.750000	-128.256134
25242.187500	-128.360748
25265.625000	-128.352890
25289.062500	-128.396164
25312.500000	-128.380127
25335.937500	-128.295395
25359.375000	-128.357422
25382.812500	-128.389786
25406.250000	-128.344604
25429.687500	-128.278763
25453.125000	-128.335739
25476.562500	-128.297333
25500.000000	-128.274124
25523.437500	-128.258224
25546.875000	-128.299438
25570.312500	-128.264069
25593.750000	-128.332596
25617.187500	-128.277222
25640.625000	-128.221893
25664.062500	-128.243134
25687.500000	-128.324188
25710.937500	-128.356918
25734.375000	-128.325562
25757.812500	-128.290649
25781.250000	-128.287201
25804.687500	-128.270966
25828.125000	-128.292007
25851.562500	-128.217148
25875.000000	-128.156097
25898.437500	-128.221664
25921.875000	-128.258041
25945.312500	-128.269760
25968.750000	-128.325974
25992.187500	-128.314835
26015.625000	-128.320358
26039.062500	-128.324097
26062.500000	-128.220459
26085.937500	-128.300415
26109.375000	-128.295914
26132.812500	-128.254593
26156.250000	-128.237793
26179.687500	-128.302200
26203.125000	-128.257370
26226.562500	-128.254227
26250.000000	-128.258881
26273.437500	-128.278503
26296.875000	-128.285736
26320.312500	-128.231628
26343.750000	-128.280289
26367.187500	-128.273224
26390.625000	-128.293304
26414.062500	-128.269226
26437.500000	-128.301102
26460.937500	-128.200394
26484.375000	-128.225571
26507.812500	-128.248444
26531.250000	-128.324371
26554.687500	-128.261520
26578.125000	-128.284271
26601.562500	-128.302994
26625.000000	-128.354706
26648.437500	-128.337662
26671.875000	-128.266922
26695.312500	-128.288132
26718.750000	-128.326218
26742.187500	-128.258804
26765.625000	-128.233795
26789.062500	-128.299545
26812.500000	-128.285172
26835.937500	-128.288147
26859.375000	-128.274765
26882.812500	-128.193848
26906.250000	-128.213913
26929.687500	-128.240128
26953.125000	-128.229675
26976.562500	-128.255417
27000.000000	-128.303482
27023.437500	-128.308182
27046.875000	-128.279068
27070.312500	-128.241684
27093.750000	-128.266174
27117.187500	-128.246445
27140.625000	-128.245819
27164.062500	-128.277313
27187.500000	-128.210876
27210.937500	-128.153061
27234.375000	-128.233170
27257.812500	-128.166245
27281.250000	-128.242752
27304.687500	-128.261505
27328.125000	-128.226929
27351.562500	-128.249664
27375.000000	-128.232422
27398.437500	-128.201797
27421.875000	-128.233856
27445.312500	-128.263779
27468.750000	-128.305450
27492.187500	-128.241425
27515.625000	-128.214218
27539.062500	-128.241333
27562.500000	-128.282501
27585.937500	-128.321823
27609.375000	-128.182617
27632.812500	-128.149643
27656.250000	-128.183548
27679.687500	-128.231277
27703.125000	-128.227921
27726.562500	-128.196274
27750.000000	-128.161957
27773.437500	-128.224976
27796.875000	-128.274323
27820.312500	-128.232071
27843.750000	-128.167587
27867.187500	-128.169281
27890.625000	-128.192627
27914.062500	-128.242599
27937.500000	-128.156616
27960.937500	-128.188049
27984.375000	-128.236069
28007.812500	-128.257523
28031.250000	-128.203247
28054.687500	-128.136948
28078.125000	-128.185455
28101.562500	-128.287735
28125.000000	-128.302536
28148.437500	-128.233475
28171.875000	-128.221359
28195.312500	-128.206421
28218.750000	-128.154205
28242.187500	-128.214233
28265.625000	-128.206177
28289.062500	-128.204391
28312.500000	-128.203140
28335.937500	-128.255539
28359.375000	-128.229599
28382.812500	-128.258667
28406.250000	-128.246140
28429.687500	-128.221695
28453.125000	-128.231262
28476.562500	-128.185104
28500.000000	-128.201950
28523.437500	-128.161652
28546.875000	-128.178452
28570.312500	-128.185333
28593.750000	-128.188263
28617.187500	-128.284225
28640.625000	-128.214081
28664.062500	-128.098984
28687.500000	-128.095612
28710.937500	-128.139297
28734.375000	-128.155991
28757.812500	-128.187042
28781.250000	-128.107407
28804.687500	-128.157074
28828.125000	-128.195602
28851.562500	-128.243179
28875.000000	-128.237350
28898.437500	-128.268311
28921.875000	-128.219986
28945.312500	-128.216095
28968.750000	-128.230560
28992.187500	-128.195938
29015.625000	-128.215210
29039.062500	-128.202377
29062.500000	-128.177872
29085.937500	-128.164948
29109.375000	-128.165070
29132.812500	-128.201797
29156.250000	-128.197098
29179.687500	-128.185837
29203.125000	-128.169937
29226.562500	-128.144547
29250.000000	-128.167358
29273.437500	-128.194687
29296.875000	-128.174942
29320.312500	-128.228806
29343.750000	-128.182327
29367.187500	-128.235001
29390.625000	-128.239731
29414.062500	-128.161453
29437.500000	-128.141586
29460.937500	-128.237595
29484.375000	-128.220718
29507.812500	-128.154190
29531.250000	-128.190445
29554.687500	-128.228592
29578.125000	-128.200531
29601.562500	-128.205490
29625.000000	-128.231003
29648.437500	-128.091415
29671.875000	-128.143814
29695.312500	-128.148956
29718.750000	-128.088074
29742.187500	-128.124466
29765.625000	-128.171997
29789.062500	-128.155518
29812.500000	-128.152725
29835.937500	-128.121979
29859.375000	-128.108902
29882.812500	-128.051056
29906.250000	-128.049774
29929.687500	-128.127411
29953.125000	-128.161499
29976.562500	-128.173294
30000.000000	-128.177231
30023.437500	-128.223251
30046.875000	-128.101135
30070.312500	-128.136932
30093.750000	-128.143997
30117.187500	-128.120483
30140.625000	-128.210815
30164.062500	-128.216324
30187.500000	-128.182251
30210.937500	-128.182159
30234.375000	-128.232208
30257.812500	-128.241150
30281.250000	-128.242172
30304.687500	-128.185547
30328.125000	-128.171432
30351.562500	-128.210434
30375.000000	-128.237778
30398.437500	-128.224152
30421.875000	-128.191605
30445.312500	-128.166992
30468.750000	-128.162231
30492.187500	-128.224884
30515.625000	-128.208801
30539.062500	-128.214996
30562.500000	-128.213745
30585.937500	-128.185059
30609.375000	-128.154633
30632.812500	-128.212692
30656.250000	-128.136841
30679.687500	-128.128067
30703.125000	-128.245346
30726.562500	-128.250153
30750.000000	-128.198303
30773.437500	-128.179184
30796.875000	-128.178024
30820.312500	-128.202896
30843.750000	-128.191620
30867.187500	-128.173782
30890.625000	-128.163742
30914.062500	-128.146393
30937.500000	-128.137955
30960.937500	-128.176422
30984.375000	-128.169846
31007.812500	-128.158600
31031.250000	-128.092331
31054.687500	-128.163300
31078.125000	-128.234344
31101.562500	-128.197052
31125.000000	-128.213806
31148.437500	-128.205902
31171.875000	-128.105957
31195.312500	-128.061340
31218.750000	-128.064301
31242.187500	-128.093994
31265.625000	-128.109131
31289.062500	-128.158234
31312.500000	-128.126343
31335.937500	-128.085312
31359.375000	-128.151505
31382.812500	-128.124161
31406.250000	-128.131180
31429.687500	-128.147110
31453.125000	-128.133713
31476.562500	-128.106918
31500.000000	-128.126877
31523.437500	-128.139801
31546.875000	-128.087997
31570.312500	-128.032074
31593.750000	-128.091965
31617.187500	-128.157898
31640.625000	-128.171478
31664.062500	-128.112137
31687.500000	-128.131012
31710.937500	-128.131516
31734.375000	-128.183975
31757.812500	-128.115219
31781.250000	-128.102997
31804.687500	-128.192062
31828.125000	-128.208405
31851.562500	-128.177307
31875.000000	-128.182709
31898.437500	-128.209106
31921.875000	-128.107635
31945.312500	-128.116486
31968.750000	-128.178970
31992.187500	-128.170776
32015.625000	-128.130875
32039.062500	-128.148529
32062.500000	-128.139923
32085.937500	-128.083069
32109.375000	-128.038239
32132.812500	-128.147797
32156.250000	-128.166809
32179.687500	-128.106598
32203.125000	-128.116287
32226.562500	-128.168442
32250.000000	-128.194000
32273.437500	-128.181641
32296.875000	-128.156204
32320.312500	-128.155411
32343.750000	-128.137802
32367.187500	-128.159836
32390.625000	-128.089035
32414.062500	-128.131989
32437.500000	-128.155487
32460.937500	-128.138367
32484.375000	-128.161636
32507.812500	-128.182358
32531.250000	-128.119720
32554.687500	-128.111099
32578.125000	-128.080795
32601.562500	-128.019302
32625.000000	-128.017090
32648.437500	-128.096970
32671.875000	-128.063522
32695.312500	-128.132492
32718.750000	-128.184631
32742.187500	-128.118622
32765.625000	-128.158417
32789.062500	-128.121582
32812.500000	-128.120041
32835.937500	-128.118973
32859.375000	-128.169357
32882.812500	-128.145721
32906.250000	-128.085190
32929.687500	-128.075195
32953.125000	-128.057144
32976.562500	-128.079498
33000.000000	-128.081177
33023.437500	-128.117233
33046.875000	-128.166885
33070.312500	-128.112091
33093.750000	-128.057632
33117.187500	-128.131363
33140.625000	-128.157486
33164.062500	-128.121643
33187.500000	-128.120926
33210.937500	-128.167450
33234.375000	-128.167831
33257.812500	-128.063324
33281.250000	-128.034927
33304.687500	-128.092575
33328.125000	-128.089859
33351.562500	-128.058945
33375.000000	-128.084198
33398.437500	-128.150330
33421.875000	-128.187622
33445.312500	-128.217529
33468.750000	-128.147156
33492.187500	-128.139160
33515.625000	-128.053787
33539.062500	-128.064209
33562.500000	-128.151199
33585.937500	-128.141464
33609.375000	-128.070358
33632.812500	-128.062744
33656.250000	-128.114807
33679.687500	-128.129105
33703.125000	-128.114319
33726.562500	-128.131256
33750.000000	-128.083694
33773.437500	-128.108917
33796.875000	-128.075897
33820.312500	-128.022278
33843.750000	-128.029861
33867.187500	-128.094025
33890.625000	-128.041061
33914.062500	-128.084946
33937.500000	-128.040985
33960.937500	-128.103699
33984.375000	-128.151321
34007.812500	-128.100876
34031.250000	-128.078522
34054.687500	-128.054199
34078.125000	-128.067612
34101.562500	-128.094910
34125.000000	-128.078339
34148.437500	-128.046921
34171.875000	-128.096710
34195.312500	-128.085587
34218.750000	-128.114365
34242.187500	-128.170044
34265.625000	-128.083450
34289.062500	-128.052414
34312.500000	-128.054291
34335.937500	-128.001724
34359.375000	-128.007965
34382.812500	-128.037094
34406.250000	-128.069778
34429.687500	-128.060272
34453.125000	-128.114685
34476.562500	-128.085144
34500.000000	-128.096085
34523.437500	-127.979233
34546.875000	-128.028397
34570.312500	-128.129135
34593.750000	-128.115891
34617.187500	-128.123093
34640.625000	-128.082352
34664.062500	-127.988365
34687.500000	-127.999146
34710.937500	-128.049988
34734.375000	-128.075241
34757.812500	-128.031082
34781.250000	-128.045166
34804.687500	-128.013214
34828.125000	-128.058029
34851.562500	-128.116669
34875.000000	-128.108032
34898.437500	-128.066666
34921.875000	-128.059067
34945.312500	-128.066956
34968.750000	-128.087692
34992.187500	-128.079391
35015.625000	-128.030899
35039.062500	-127.985252
35062.500000	-127.939743
35085.937500	-128.024612
35109.375000	-128.135742
35132.812500	-128.167297
35156.250000	-128.153122
35179.687500	-128.119003
35203.125000	-128.054276
35226.562500	-128.025345
35250.000000	-127.991127
35273.437500	-128.074203
35296.875000	-128.051468
35320.312500	-128.100159
35343.750000	-128.084320
35367.187500	-128.066116
35390.625000	-128.049850
35414.062500	-128.041260
35437.500000	-128.049011
35460.937500	-128.012741
35484.375000	-128.076691
35507.812500	-128.054092
35531.250000	-128.075958
35554.687500	-127.950417
35578.125000	-127.898033
35601.562500	-128.006607
35625.000000	-128.024277
35648.437500	-128.019104
35671.875000	-128.092484
35695.312500	-128.069183
35718.750000	-128.143448
35742.187500	-128.124969
35765.625000	-128.084671
35789.062500	-128.056351
35812.500000	-128.073364
35835.937500	-128.013474
35859.375000	-128.017593
35882.812500	-128.042450
35906.250000	-128.029358
35929.687500	-127.919823
35953.125000	-127.948929
35976.562500	-127.995567
36000.000000	-127.986313
36023.437500	-128.022461
36046.875000	-127.978600
36070.312500	-127.973930
36093.750000	-127.922356
36117.187500	-128.062134
36140.625000	-128.074661
36164.062500	-128.060913
36187.500000	-128.130997
36210.937500	-128.030945
36234.375000	-127.985573
36257.812500	-128.018433
36281.250000	-128.004364
36304.687500	-127.940254
36328.125000	-127.908920
36351.562500	-127.999626
36375.000000	-128.022461
36398.437500	-128.071304
36421.875000	-128.118027
36445.312500	-128.145157
36468.750000	-128.076614
36492.187500	-128.032700
36515.625000	-128.060074
36539.062500	-128.110962
36562.500000	-128.025070
36585.937500	-128.037704
36609.375000	-128.033585
36632.812500	-128.017883
36656.250000	-128.084305
36679.687500	-128.022476
36703.125000	-128.019104
36726.562500	-128.022858
36750.000000	-128.092194
36773.437500	-128.059601
36796.875000	-128.047516
36820.312500	-127.952011
36843.750000	-127.988785
36867.187500	-128.063812
36890.625000	-128.037323
36914.062500	-128.081924
36937.500000	-128.030441
36960.937500	-128.022522
36984.375000	-128.048843
37007.812500	-128.051254
37031.250000	-128.085815
37054.687500	-128.050583
37078.125000	-128.041428
37101.562500	-128.065018
37125.000000	-128.127441
37148.437500	-128.065155
37171.875000	-128.048050
37195.312500	-128.046173
37218.750000	-127.982414
37242.187500	-127.964874
37265.625000	-128.030380
37289.062500	-128.018936
37312.500000	-128.020401
37335.937500	-128.048996
37359.375000	-128.025467
37382.812500	-127.987114
37406.250000	-127.967941
37429.687500	-128.008163
37453.125000	-128.038010
37476.562500	-128.061249
37500.000000	-128.070297
37523.437500	-128.030350
37546.875000	-128.037079
37570.312500	-127.984261
37593.750000	-127.932877
37617.187500	-127.958427
37640.625000	-128.069946
37664.062500	-128.026367
37687.500000	-128.025330
37710.937500	-128.051117
37734.375000	-128.042740
37757.812500	-127.987770
37781.250000	-127.950111
37804.687500	-127.948006
37828.125000	-128.041107
37851.562500	-127.977478
37875.000000	-127.902229
37898.437500	-127.974960
37921.875000	-128.060562
37945.312500	-127.987198
37968.750000	-128.002701
37992.187500	-128.055359
38015.625000	-128.002930
38039.062500	-127.998695
38062.500000	-127.962067
38085.937500	-127.948814
38109.375000	-127.996582
38132.812500	-127.983681
38156.250000	-127.971718
38179.687500	-128.012115
38203.125000	-128.000946
38226.562500	-128.004959
38250.000000	-128.046066
38273.437500	-127.988319
38296.875000	-128.003006
38320.312500	-128.046829
38343.750000	-127.988129
38367.187500	-127.974449
38390.625000	-128.026871
38414.062500	-128.020035
38437.500000	-127.983765
38460.937500	-127.939842
38484.375000	-127.971527
38507.812500	-127.975395
38531.250000	-127.980179
38554.687500	-127.979851
38578.125000	-127.938820
38601.562500	-127.972458
38625.000000	-128.091248
38648.437500	-128.105301
38671.875000	-127.985336
38695.312500	-127.981155
38718.750000	-127.977882
38742.187500	-127.945496
38765.625000	-127.938210
38789.062500	-127.944038
38812.500000	-128.009995
38835.937500	-127.899940
38859.375000	-127.942001
38882.812500	-127.980865
38906.250000	-127.939362
38929.687500	-127.977806
38953.125000	-127.943466
38976.562500	-127.907600
39000.000000	-127.915192
39023.437500	-127.955276
39046.875000	-127.998428
39070.312500	-127.984314
39093.750000	-127.956680
39117.187500	-127.968971
39140.625000	-127.946465
39164.062500	-127.852486
39187.500000	-127.872917
39210.937500	-127.969986
39234.375000	-127.981705
39257.812500	-127.930733
39281.250000	-127.942886
39304.687500	-127.909676
39328.125000	-127.955826
39351.562500	-128.017563
39375.000000	-127.956535
39398.437500	-127.984573
39421.875000	-127.961487
39445.312500	-127.904785
39468.750000	-127.896027
39492.187500	-127.957756
39515.625000	-127.982666
39539.062500	-127.999565
39562.500000	-127.960930
39585.937500	-127.929237
39609.375000	-127.905510
39632.812500	-127.883003
39656.250000	-127.919090
39679.687500	-127.900635
39703.125000	-127.947708
39726.562500	-127.938416
39750.000000	-127.936592
39773.437500	-128.002228
39796.875000	-127.982437
39820.312500	-127.970146
39843.750000	-127.986221
39867.187500	-127.979332
39890.625000	-127.945450
39914.062500	-127.800400
39937.500000	-127.859840
39960.937500	-127.916374
39984.375000	-127.910431
40007.812500	-127.952454
40031.250000	-127.970711
40054.687500	-127.949921
40078.125000	-127.945541
40101.562500	-127.981415
40125.000000	-127.977829
40148.437500	-127.953827
40171.875000	-127.978073
40195.312500	-127.984100
40218.750000	-127.992363
40242.187500	-127.959702
40265.625000	-127.917763
40289.062500	-127.921112
40312.500000	-127.810371
40335.937500	-127.921776
40359.375000	-127.888542
40382.812500	-127.933640
40406.250000	-127.972130
40429.687500	-127.954430
40453.125000	-128.000336
40476.562500	-127.973923
40500.000000	-127.905167
40523.437500	-127.951324
40546.875000	-127.949783
40570.312500	-127.983505
40593.750000	-127.984612
40617.187500	-127.969772
40640.625000	-127.971413
40664.062500	-128.004089
40687.500000	-127.995590
40710.937500	-127.960854
40734.375000	-127.989182
40757.812500	-127.950500
40781.250000	-127.890190
40804.687500	-127.953712
40828.125000	-127.962982
40851.562500	-127.942612
40875.000000	-127.980095
40898.437500	-127.966293
40921.875000	-127.936424
40945.312500	-127.949539
40968.750000	-127.932472
40992.187500	-127.994202
41015.625000	-128.014175
41039.062500	-128.095047
41062.500000	-128.045197
41085.937500	-127.992378
41109.375000	-127.881485
41132.812500	-127.907852
41156.250000	-128.044907
41179.687500	-128.027802
41203.125000	-128.030609
41226.562500	-128.029160
41250.000000	-128.113602
41273.437500	-128.109726
41296.875000	-128.046112
41320.312500	-128.046921
41343.750000	-128.039688
41367.187500	-128.020187
41390.625000	-127.955269
41414.062500	-127.981842
41437.500000	-128.056259
41460.937500	-128.061035
41484.375000	-128.043137
41507.812500	-127.988258
41531.250000	-128.016708
41554.687500	-128.142670
41578.125000	-128.112122
41601.562500	-128.124573
41625.000000	-128.063049
41648.437500	-128.044968
41671.875000	-128.043839
41695.312500	-128.025940
41718.750000	-128.042145
41742.187500	-128.024307
41765.625000	-128.019760
41789.062500	-128.088196
41812.500000	-128.140717
41835.937500	-128.119064
41859.375000	-128.163193
41882.812500	-128.104370
41906.250000	-128.061737
41929.687500	-128.116333
41953.125000	-128.098755
41976.562500	-128.127594
42000.000000	-128.120697
42023.437500	-128.094528
42046.875000	-128.068237
42070.312500	-128.048904
42093.750000	-128.092194
42117.187500	-128.130676
42140.625000	-128.148941
42164.062500	-128.133453
42187.500000	-128.150681
42210.937500	-128.118713
42234.375000	-128.116989
42257.812500	-128.127625
42281.250000	-128.172821
42304.687500	-128.185272
42328.125000	-128.184586
42351.562500	-128.233749
42375.000000	-128.255310
42398.437500	-128.205200
42421.875000	-128.194595
42445.312500	-128.277618
42468.750000	-128.232758
42492.187500	-128.240311
42515.625000	-128.271927
42539.062500	-128.238190
42562.500000	-128.184494
42585.937500	-128.183105
42609.375000	-128.228241
42632.812500	-128.234787
42656.250000	-128.216415
42679.687500	-128.258224
42703.125000	-128.308838
42726.562500	-128.306534
42750.000000	-128.233994
42773.437500	-128.243973
42796.875000	-128.304153
42820.312500	-128.283676
42843.750000	-128.240967
42867.187500	-128.306839
42890.625000	-128.285461
42914.062500	-128.280121
42937.500000	-128.338058
42960.937500	-128.431671
42984.375000	-128.415787
43007.812500	-128.365509
43031.250000	-128.364059
43054.687500	-128.370041
43078.125000	-128.388641
43101.562500	-128.402985
43125.000000	-128.420761
43148.437500	-128.355927
43171.875000	-128.357056
43195.312500	-128.386993
43218.750000	-128.394623
43242.187500	-128.458618
43265.625000	-128.462814
43289.062500	-128.426041
43312.500000	-128.423523
43335.937500	-128.458298
43359.375000	-128.477753
43382.812500	-128.426346
43406.250000	-128.530258
43429.687500	-128.545090
43453.125000	-128.540405
43476.562500	-128.515732
43500.000000	-128.591415
43523.437500	-128.596741
43546.875000	-128.503967
43570.312500	-128.584885
43593.750000	-128.569611
43617.187500	-128.504654
43640.625000	-128.518387
43664.062500	-128.586868
43687.500000	-128.597321
43710.937500	-128.606354
43734.375000	-128.594788
43757.812500	-128.585449
43781.250000	-128.583099
43804.687500	-128.580002
43828.125000	-128.599899
43851.562500	-128.655457
43875.000000	-128.656723
43898.437500	-128.694626
43921.875000	-128.714874
43945.312500	-128.694931
43968.750000	-128.645386
43992.187500	-128.639587
44015.625000	-128.647079
44039.062500	-128.665588
44062.500000	-128.730865
44085.937500	-128.742722
44109.375000	-128.831802
44132.812500	-128.891083
44156.250000	-128.802124
44179.687500	-128.755585
44203.125000	-128.786911
44226.562500	-128.762161
44250.000000	-128.796356
44273.437500	-128.821854
44296.875000	-128.808945
44320.312500	-128.871918
44343.750000	-128.927673
44367.187500	-128.850281
44390.625000	-128.911179
44414.062500	-128.939682
44437.500000	-128.984268
44460.937500	-128.953201
44484.375000	-128.893784
44507.812500	-128.974152
44531.250000	-129.036758
44554.687500	-129.012131
44578.125000	-128.971695
44601.562500	-129.003845
44625.000000	-129.052002
44648.437500	-129.069321
44671.875000	-129.013458
44695.312500	-129.069641
44718.750000	-129.111038
44742.187500	-129.132477
44765.625000	-129.096725
44789.062500	-129.081192
44812.500000	-129.098480
44835.937500	-129.010086
44859.375000	-129.131866
44882.812500	-129.205429
44906.250000	-129.152008
44929.687500	-129.222137
44953.125000	-129.267487
44976.562500	-129.293198
45000.000000	-129.238846
45023.437500	-129.287781
45046.875000	-129.294693
45070.312500	-129.321579
45093.750000	-129.363831
45117.187500	-129.361725
45140.625000	-129.312820
45164.062500	-129.335693
45187.500000	-129.361343
45210.937500	-129.409134
45234.375000	-129.417053
45257.812500	-129.367767
45281.250000	-129.368637
45304.687500	-129.477081
45328.125000	-129.506241
45351.562500	-129.440903
45375.000000	-129.453583
45398.437500	-129.519058
45421.875000	-129.612030
45445.312500	-129.567688
45468.750000	-129.602295
45492.187500	-129.517044
45515.625000	-129.508957
45539.062500	-129.575668
45562.500000	-129.539612
45585.937500	-129.601288
45609.375000	-129.642700
45632.812500	-129.637665
45656.250000	-129.613800
45679.687500	-129.693680
45703.125000	-129.736328
45726.562500	-129.751755
45750.000000	-129.726334
45773.437500	-129.761169
45796.875000	-129.762634
45820.312500	-129.768005
45843.750000	-129.755676
45867.187500	-129.805649
45890.625000	-129.776123
45914.062500	-129.765427
45937.500000	-129.794067
45960.937500	-129.852570
45984.375000	-129.862915
46007.812500	-129.905090
46031.250000	-129.880554
46054.687500	-129.880753
46078.125000	-129.863281
46101.562500	-129.857864
46125.000000	-129.921600
46148.437500	-129.918106
46171.875000	-129.963181
46195.312500	-129.931503
46218.750000	-129.938843
46242.187500	-129.957993
46265.625000	-129.997803
46289.062500	-130.043198
46312.500000	-130.088150
46335.937500	-130.099884
46359.375000	-130.063004
46382.812500	-130.065994
46406.250000	-130.150406
46429.687500	-130.057480
46453.125000	-130.118713
46476.562500	-130.148941
46500.000000	-130.180649
46523.437500	-130.138260
46546.875000	-130.103088
46570.312500	-130.174652
46593.750000	-130.180664
46617.187500	-130.129745
46640.625000	-130.168137
46664.062500	-130.149689
46687.500000	-130.216705
46710.937500	-130.234558
46734.375000	-130.282761
46757.812500	-130.318878
46781.250000	-130.333954
46804.687500	-130.284195
46828.125000	-130.231964
46851.562500	-130.280685
46875.000000	-130.246704
46898.437500	-130.286362
46921.875000	-130.332855
46945.312500	-130.330444
46968.750000	-130.365189
46992.187500	-130.412415
47015.625000	-130.376602
47039.062500	-130.375931
47062.500000	-130.395065
47085.937500	-130.432816
47109.375000	-130.407043
47132.812500	-130.404053
47156.250000	-130.510895
47179.687500	-130.470001
47203.125000	-130.445999
47226.562500	-130.439667
47250.000000	-130.523544
47273.437500	-130.522629
47296.875000	-130.469360
47320.312500	-130.466202
47343.750000	-130.424988
47367.187500	-130.437256
47390.625000	-130.555588
47414.062500	-130.530823
47437.500000	-130.476212
47460.937500	-130.463623
47484.375000	-130.516037
47507.812500	-130.469208
47531.250000	-130.476212
47554.687500	-130.532745
47578.125000	-130.506729
47601.562500	-130.551987
47625.000000	-130.595901
47648.437500	-130.653519
47671.875000	-130.657089
47695.312500	-130.576996
47718.750000	-130.611786
47742.187500	-130.583862
47765.625000	-130.549240
47789.062500	-130.551086
47812.500000	-130.566727
47835.937500	-130.565094
47859.375000	-130.579056
47882.812500	-130.573639
47906.250000	-130.625824
47929.687500	-130.631241
47953.125000	-130.559387
47976.562500	-130.507507
