주파수 (Hz)	레벨 (dB)
23.437500	-93.062012
46.875000	-79.783348
70.312500	-64.296150
93.750000	-56.459835
117.187500	-52.869560
140.625000	-51.312023
164.062500	-51.438007
187.500000	-48.951729
210.937500	-49.199665
234.375000	-48.720055
257.812500	-46.284103
281.250000	-46.586525
304.687500	-45.833618
328.125000	-44.090328
351.562500	-44.193329
375.000000	-47.752789
398.437500	-46.833019
421.875000	-44.095341
445.312500	-41.786556
468.750000	-43.505520
492.187500	-47.071857
515.625000	-45.050415
539.062500	-45.995102
562.500000	-51.179214
585.937500	-48.704552
609.375000	-46.379345
632.812500	-45.376007
656.250000	-48.497669
679.687500	-47.283646
703.125000	-43.989635
726.562500	-48.646210
750.000000	-51.423534
773.437500	-49.514378
796.875000	-48.868134
820.312500	-48.479065
843.750000	-47.552963
867.187500	-50.864853
890.625000	-49.929768
914.062500	-57.470989
937.500000	-57.215153
960.937500	-58.125977
984.375000	-53.435276
1007.812500	-55.993797
1031.250000	-53.749092
1054.687500	-50.526604
1078.125000	-56.919540
1101.562500	-60.993435
1125.000000	-63.323441
1148.437500	-62.706390
1171.875000	-54.172909
1195.312500	-53.997814
1218.750000	-62.798542
1242.187500	-56.839714
1265.625000	-56.735065
1289.062500	-62.282635
1312.500000	-57.059731
1335.937500	-56.194431
1359.375000	-61.505245
1382.812500	-60.939819
1406.250000	-59.314365
1429.687500	-62.855724
1453.125000	-64.196457
1476.562500	-60.432915
1500.000000	-60.977486
1523.437500	-68.451035
1546.875000	-66.727005
1570.312500	-58.895679
1593.750000	-59.767673
1617.187500	-69.136986
1640.625000	-69.591995
1664.062500	-63.650421
1687.500000	-64.188499
1710.937500	-70.433357
1734.375000	-66.573517
1757.812500	-61.633541
1781.250000	-60.410175
1804.687500	-66.603447
1828.125000	-68.320770
1851.562500	-66.758957
1875.000000	-61.808681
1898.437500	-63.706612
1921.875000	-71.693993
1945.312500	-69.956406
1968.750000	-61.523369
1992.187500	-61.618198
2015.625000	-70.119843
2039.062500	-73.576591
2062.500000	-71.769905
2085.937500	-67.896538
2109.375000	-62.735020
2132.812500	-64.282166
2156.250000	-74.623230
2179.687500	-73.280884
2203.125000	-69.645226
2226.562500	-67.528084
2250.000000	-70.768913
2273.437500	-77.835266
2296.875000	-77.635895
2320.312500	-72.524147
2343.750000	-69.697716
2367.187500	-62.494553
2390.625000	-61.475399
2414.062500	-70.021118
2437.500000	-76.731827
2460.937500	-70.887505
2484.375000	-65.706131
2507.812500	-67.335793
2531.250000	-67.623772
2554.687500	-74.134521
2578.125000	-81.060509
2601.562500	-80.061806
2625.000000	-80.160393
2648.437500	-70.772408
2671.875000	-66.277939
2695.312500	-70.387650
2718.750000	-79.757233
2742.187500	-74.137680
2765.625000	-72.275215
2789.062500	-69.592926
2812.500000	-67.128517
2835.937500	-62.008286
2859.375000	-64.914856
2882.812500	-75.321907
2906.250000	-80.508217
2929.687500	-79.693893
2953.125000	-76.455528
2976.562500	-74.382660
3000.000000	-73.527496
3023.437500	-73.689232
3046.875000	-74.173897
3070.312500	-78.027275
3093.750000	-73.837830
3117.187500	-76.896950
3140.625000	-77.590546
3164.062500	-76.112152
3187.500000	-72.363976
3210.937500	-71.628647
3234.375000	-76.253723
3257.812500	-85.057343
3281.250000	-78.551628
3304.687500	-77.658478
3328.125000	-77.283943
3351.562500	-76.151054
3375.000000	-77.936172
3398.437500	-77.412392
3421.875000	-79.326881
3445.312500	-85.911591
3468.750000	-84.021858
3492.187500	-81.083832
3515.625000	-82.516342
3539.062500	-77.834633
3562.500000	-70.920258
3585.937500	-68.637238
3609.375000	-71.273048
3632.812500	-77.364174
3656.250000	-83.966461
3679.687500	-88.139519
3703.125000	-88.128479
3726.562500	-87.556000
3750.000000	-75.562103
3773.437500	-71.839729
3796.875000	-77.735237
3820.312500	-75.526634
3843.750000	-72.504181
3867.187500	-75.497185
3890.625000	-83.571205
3914.062500	-81.976776
3937.500000	-81.862579
3960.937500	-83.391617
3984.375000	-82.246971
4007.812500	-79.942749
4031.250000	-81.933708
4054.687500	-79.839012
4078.125000	-78.790031
4101.562500	-81.569458
4125.000000	-86.999451
4148.437500	-90.819801
4171.875000	-86.848480
4195.312500	-84.470009
4218.750000	-81.583061
4242.187500	-76.978668
4265.625000	-80.226097
4289.062500	-81.138863
4312.500000	-77.033989
4335.937500	-78.739563
4359.375000	-80.957726
4382.812500	-87.964905
4406.250000	-91.574791
4429.687500	-90.533813
4453.125000	-87.553680
4476.562500	-84.511192
4500.000000	-80.797264
4523.437500	-79.993912
4546.875000	-82.307747
4570.312500	-85.446373
4593.750000	-87.577271
4617.187500	-87.820541
4640.625000	-90.868134
4664.062500	-91.670464
4687.500000	-93.554222
4710.937500	-94.590866
4734.375000	-89.105255
4757.812500	-85.928223
4781.250000	-87.865234
4804.687500	-90.398186
4828.125000	-85.352882
4851.562500	-82.019791
4875.000000	-84.307541
4898.437500	-87.186096
4921.875000	-89.382523
4945.312500	-90.255783
4968.750000	-93.316719
4992.187500	-96.970146
5015.625000	-97.095085
5039.062500	-89.282433
5062.500000	-82.064468
5085.937500	-84.533974
5109.375000	-91.500656
5132.812500	-83.407761
5156.250000	-81.693611
5179.687500	-84.669014
5203.125000	-88.789452
5226.562500	-90.673248
5250.000000	-91.633987
5273.437500	-91.598572
5296.875000	-95.965233
5320.312500	-98.442131
5343.750000	-94.320534
5367.187500	-89.219086
5390.625000	-89.790367
5414.062500	-95.506126
5437.500000	-90.686783
5460.937500	-86.694817
5484.375000	-84.482979
5507.812500	-86.090546
5531.250000	-92.823814
5554.687500	-89.814468
5578.125000	-92.395500
5601.562500	-95.679657
5625.000000	-95.648132
5648.437500	-98.894562
5671.875000	-97.179283
5695.312500	-91.137306
5718.750000	-86.966385
5742.187500	-86.863632
5765.625000	-90.743881
5789.062500	-99.735992
5812.500000	-90.969269
5835.937500	-87.117767
5859.375000	-89.965874
5882.812500	-98.149902
5906.250000	-98.402672
5929.687500	-96.303513
5953.125000	-98.659317
5976.562500	-95.567680
6000.000000	-94.731621
6023.437500	-101.457947
6046.875000	-103.119255
6070.312500	-93.848167
6093.750000	-90.405136
6117.187500	-94.490227
6140.625000	-100.113609
6164.062500	-94.133255
6187.500000	-85.820992
6210.937500	-85.796043
6234.375000	-91.882286
6257.812500	-95.073509
6281.250000	-90.048729
6304.687500	-92.055664
6328.125000	-97.791130
6351.562500	-99.174576
6375.000000	-94.754265
6398.437500	-96.109093
6421.875000	-101.833061
6445.312500	-94.842911
6468.750000	-91.102844
6492.187500	-91.170509
6515.625000	-91.173378
6539.062500	-97.330185
6562.500000	-98.516640
6585.937500	-94.758797
6609.375000	-92.133011
6632.812500	-96.166428
6656.250000	-100.038979
6679.687500	-93.848640
6703.125000	-93.642242
6726.562500	-94.015327
6750.000000	-94.966080
6773.437500	-96.021446
6796.875000	-99.100037
6820.312500	-97.486816
6843.750000	-100.221954
6867.187500	-105.857422
6890.625000	-105.394852
6914.062500	-104.570023
6937.500000	-106.004272
6960.937500	-103.331757
6984.375000	-100.138748
7007.812500	-94.993454
7031.250000	-91.951752
7054.687500	-93.480438
7078.125000	-98.707573
7101.562500	-102.859184
7125.000000	-97.805405
7148.437500	-98.265274
7171.875000	-101.833618
7195.312500	-100.320564
7218.750000	-101.196335
7242.187500	-102.664154
7265.625000	-99.268562
7289.062500	-100.322807
7312.500000	-102.337143
7335.937500	-102.625687
7359.375000	-103.011749
7382.812500	-105.234665
7406.250000	-105.819489
7429.687500	-102.812271
7453.125000	-95.594604
7476.562500	-90.546829
7500.000000	-89.084145
7523.437500	-89.816498
7546.875000	-94.673203
7570.312500	-102.112076
7593.750000	-103.585251
7617.187500	-102.508850
7640.625000	-102.774200
7664.062500	-106.081612
7687.500000	-104.770363
7710.937500	-102.149712
7734.375000	-100.562752
7757.812500	-104.051239
7781.250000	-104.631752
7804.687500	-105.680244
7828.125000	-104.301552
7851.562500	-100.514137
7875.000000	-101.602425
7898.437500	-106.423195
7921.875000	-106.913956
7945.312500	-107.761086
7968.750000	-105.480988
7992.187500	-98.679054
8015.625000	-94.706421
8039.062500	-97.550293
8062.500000	-103.376114
8085.937500	-103.575523
8109.375000	-104.844795
8132.812500	-108.898117
8156.250000	-108.131660
8179.687500	-106.121162
8203.125000	-102.540421
8226.562500	-103.147545
8250.000000	-103.848785
8273.437500	-103.240761
8296.875000	-105.484276
8320.312500	-100.088364
8343.750000	-99.720367
8367.187500	-104.886169
8390.625000	-107.037796
8414.062500	-102.606079
8437.500000	-98.018456
8460.937500	-100.247810
8484.375000	-105.086029
8507.812500	-102.874176
8531.250000	-99.724358
8554.687500	-100.815033
8578.125000	-103.753059
8601.562500	-108.313187
8625.000000	-109.795097
8648.437500	-108.755470
8671.875000	-108.224342
8695.312500	-110.198044
8718.750000	-108.250710
8742.187500	-107.648376
8765.625000	-109.045761
8789.062500	-109.948845
8812.500000	-107.580170
8835.937500	-106.150665
8859.375000	-108.539551
8882.812500	-109.673721
8906.250000	-107.795746
8929.687500	-109.651535
8953.125000	-112.165146
8976.562500	-109.019295
9000.000000	-104.987679
9023.437500	-103.164299
9046.875000	-105.394569
9070.312500	-108.735252
9093.750000	-107.481499
9117.187500	-105.852600
9140.625000	-108.919563
9164.062500	-113.409531
9187.500000	-113.410866
9210.937500	-112.484261
9234.375000	-111.775070
9257.812500	-113.316933
9281.250000	-114.355576
9304.687500	-113.472054
9328.125000	-113.310738
9351.562500	-109.243568
9375.000000	-102.966080
9398.437500	-104.256836
9421.875000	-107.032082
9445.312500	-108.058281
9468.750000	-110.275978
9492.187500	-111.910576
9515.625000	-112.456093
9539.062500	-113.364983
9562.500000	-112.641472
9585.937500	-111.177208
9609.375000	-109.569626
9632.812500	-109.771286
9656.250000	-110.549957
9679.687500	-111.114792
9703.125000	-111.147423
9726.562500	-111.989670
9750.000000	-114.876549
9773.437500	-115.569801
9796.875000	-114.887199
9820.312500	-115.238235
9843.750000	-115.047752
9867.187500	-115.120583
9890.625000	-116.055717
9914.062500	-115.674973
9937.500000	-114.228508
9960.937500	-112.073181
9984.375000	-110.583969
10007.812500	-110.575462
10031.250000	-107.626930
10054.687500	-108.483124
10078.125000	-109.315559
10101.562500	-110.396553
10125.000000	-110.961929
10148.437500	-111.123657
10171.875000	-113.173393
10195.312500	-114.432144
10218.750000	-115.192474
10242.187500	-114.773651
10265.625000	-111.885437
10289.062500	-110.778549
10312.500000	-112.797470
10335.937500	-112.760521
10359.375000	-113.525505
10382.812500	-113.742043
10406.250000	-111.068810
10429.687500	-109.456200
10453.125000	-110.482697
10476.562500	-111.919678
10500.000000	-110.463242
10523.437500	-109.941116
10546.875000	-110.752670
10570.312500	-112.503548
10593.750000	-114.120689
10617.187500	-114.922501
10640.625000	-114.921127
10664.062500	-113.971779
10687.500000	-113.409645
10710.937500	-112.270325
10734.375000	-112.700150
10757.812500	-113.705971
10781.250000	-115.312408
10804.687500	-113.283112
10828.125000	-112.394691
10851.562500	-114.569283
10875.000000	-116.550667
10898.437500	-116.401054
10921.875000	-115.676140
10945.312500	-116.373062
10968.750000	-115.635330
10992.187500	-116.370407
11015.625000	-115.617256
11039.062500	-114.953384
11062.500000	-116.245911
11085.937500	-116.657097
11109.375000	-114.171478
11132.812500	-111.149826
11156.250000	-113.902588
11179.687500	-116.957779
11203.125000	-115.758957
11226.562500	-115.089050
11250.000000	-115.529869
11273.437500	-117.854370
11296.875000	-119.187035
11320.312500	-118.084839
11343.750000	-116.570808
11367.187500	-117.361382
11390.625000	-117.932014
11414.062500	-116.840828
11437.500000	-115.629105
11460.937500	-117.312263
11484.375000	-117.837585
11507.812500	-116.546219
11531.250000	-118.028282
11554.687500	-118.271179
11578.125000	-118.126511
11601.562500	-118.554184
11625.000000	-118.713280
11648.437500	-118.617386
11671.875000	-118.458229
11695.312500	-118.053841
11718.750000	-117.071136
11742.187500	-116.237175
11765.625000	-117.381058
11789.062500	-118.428268
11812.500000	-118.983864
11835.937500	-119.365860
11859.375000	-119.344627
11882.812500	-118.495178
11906.250000	-117.234833
11929.687500	-116.782722
11953.125000	-117.249741
11976.562500	-117.083076
12000.000000	-114.726494
12023.437500	-116.909187
12046.875000	-117.404739
12070.312500	-117.370140
12093.750000	-117.560478
12117.187500	-118.042130
12140.625000	-118.821365
12164.062500	-118.773689
12187.500000	-118.303940
12210.937500	-118.680687
12234.375000	-116.605362
12257.812500	-116.696037
12281.250000	-117.625656
12304.687500	-114.791161
12328.125000	-116.632652
12351.562500	-118.330299
12375.000000	-116.759262
12398.437500	-118.108681
12421.875000	-119.157799
12445.312500	-119.037544
12468.750000	-119.371620
12492.187500	-119.951675
12515.625000	-119.538322
12539.062500	-119.232422
12562.500000	-118.760361
12585.937500	-117.895287
12609.375000	-117.700783
12632.812500	-117.444916
12656.250000	-118.214348
12679.687500	-118.748810
12703.125000	-118.818672
12726.562500	-119.047859
12750.000000	-119.582298
12773.437500	-119.362190
12796.875000	-119.003029
12820.312500	-118.368660
12843.750000	-118.763954
12867.187500	-119.109741
12890.625000	-119.406471
12914.062500	-119.623413
12937.500000	-120.086227
12960.937500	-119.919777
12984.375000	-119.319740
13007.812500	-117.185905
13031.250000	-116.868446
13054.687500	-119.080200
13078.125000	-119.112411
13101.562500	-119.171219
13125.000000	-119.653267
13148.437500	-119.857834
13171.875000	-119.992210
13195.312500	-119.303406
13218.750000	-118.493584
13242.187500	-119.485435
13265.625000	-119.630104
13289.062500	-119.494965
13312.500000	-119.749031
13335.937500	-119.820717
13359.375000	-119.349274
13382.812500	-119.112106
13406.250000	-118.929466
13429.687500	-118.183830
13453.125000	-118.460289
13476.562500	-118.228607
13500.000000	-116.520256
13523.437500	-117.335144
13546.875000	-119.625389
13570.312500	-120.326187
13593.750000	-120.512756
13617.187500	-120.473267
13640.625000	-120.430740
13664.062500	-119.646446
13687.500000	-119.400528
13710.937500	-120.155777
13734.375000	-120.122406
13757.812500	-120.467865
13781.250000	-120.626022
13804.687500	-120.534767
13828.125000	-120.646683
13851.562500	-120.683212
13875.000000	-120.908073
13898.437500	-121.070793
13921.875000	-120.853729
13945.312500	-120.846252
13968.750000	-120.487556
13992.187500	-120.720573
14015.625000	-119.969749
14039.062500	-119.453323
14062.500000	-120.703865
14085.937500	-120.429428
14109.375000	-120.001526
14132.812500	-120.523315
14156.250000	-120.496758
14179.687500	-120.970833
14203.125000	-121.178062
14226.562500	-121.160263
14250.000000	-121.234337
14273.437500	-121.268265
14296.875000	-121.289047
14320.312500	-121.098160
14343.750000	-120.978752
14367.187500	-120.714325
14390.625000	-120.794594
14414.062500	-121.294617
14437.500000	-120.967262
14460.937500	-120.874130
14484.375000	-121.248123
14507.812500	-121.424683
14531.250000	-121.591980
14554.687500	-121.436783
14578.125000	-121.518875
14601.562500	-121.748589
14625.000000	-121.665855
14648.437500	-120.301598
14671.875000	-117.259819
14695.312500	-118.332939
14718.750000	-120.059921
14742.187500	-120.365440
14765.625000	-120.907806
14789.062500	-121.342056
14812.500000	-121.496033
14835.937500	-121.522514
14859.375000	-121.722198
14882.812500	-121.868889
14906.250000	-121.816925
14929.687500	-121.708321
14953.125000	-121.709610
14976.562500	-121.208893
15000.000000	-119.884171
15023.437500	-120.915543
15046.875000	-121.406441
15070.312500	-121.475517
15093.750000	-121.626152
15117.187500	-121.545288
15140.625000	-121.689049
15164.062500	-121.950684
15187.500000	-121.641045
15210.937500	-121.652473
15234.375000	-121.897743
15257.812500	-121.986008
15281.250000	-122.161690
15304.687500	-122.182953
15328.125000	-122.179749
15351.562500	-122.049530
15375.000000	-122.064323
15398.437500	-122.110229
15421.875000	-122.096893
15445.312500	-121.978683
15468.750000	-121.761955
15492.187500	-121.650749
15515.625000	-121.916573
15539.062500	-122.013771
15562.500000	-122.041389
15585.937500	-122.065857
15609.375000	-122.051796
15632.812500	-122.100098
15656.250000	-122.134750
15679.687500	-121.932434
15703.125000	-121.957626
15726.562500	-122.002739
15750.000000	-121.886681
15773.437500	-121.704605
15796.875000	-121.765068
15820.312500	-121.868149
15843.750000	-122.082542
15867.187500	-122.003151
15890.625000	-121.926537
15914.062500	-121.759819
15937.500000	-121.236885
15960.937500	-120.440933
15984.375000	-119.591354
16007.812500	-121.042274
16031.250000	-121.735016
16054.687500	-121.873520
16078.125000	-122.156906
16101.562500	-122.110657
16125.000000	-122.326775
16148.437500	-122.612625
16171.875000	-122.527023
16195.312500	-122.450836
16218.750000	-122.388229
16242.187500	-122.288437
16265.625000	-122.434158
16289.062500	-122.465523
16312.500000	-122.466385
16335.937500	-122.493187
16359.375000	-122.570389
16382.812500	-122.525398
16406.250000	-122.491310
16429.687500	-122.583534
16453.125000	-122.572525
16476.562500	-122.196312
16500.000000	-121.174118
16523.437500	-122.096817
16546.875000	-122.557320
16570.312500	-122.731384
16593.750000	-122.660629
16617.187500	-122.601837
16640.625000	-122.577995
16664.062500	-122.671959
16687.500000	-122.664482
16710.937500	-122.679520
16734.375000	-122.788132
16757.812500	-122.708138
16781.250000	-122.395996
16804.687500	-121.839340
16828.125000	-121.481468
16851.562500	-121.506035
16875.000000	-121.913010
16898.437500	-122.016129
16921.875000	-122.003433
16945.312500	-122.294945
16968.750000	-122.621918
16992.187500	-122.726982
17015.625000	-122.745941
17039.062500	-122.777031
17062.500000	-122.756615
17085.937500	-122.925034
17109.375000	-122.939018
17132.812500	-122.805603
17156.250000	-122.756744
17179.687500	-122.714157
17203.125000	-122.736069
17226.562500	-122.709732
17250.000000	-122.695488
17273.437500	-122.698448
17296.875000	-122.845253
17320.312500	-122.851028
17343.750000	-122.874352
17367.187500	-122.925133
17390.625000	-123.004189
17414.062500	-122.849480
17437.500000	-122.833435
17460.937500	-123.038452
17484.375000	-122.984848
17507.812500	-123.031921
17531.250000	-123.012299
17554.687500	-122.937126
17578.125000	-123.006378
17601.562500	-123.060623
17625.000000	-123.105392
17648.437500	-123.046387
17671.875000	-123.044907
17695.312500	-123.064606
17718.750000	-123.018181
17742.187500	-122.950974
17765.625000	-122.988403
17789.062500	-122.893982
17812.500000	-123.023087
17835.937500	-123.118881
17859.375000	-123.109406
17882.812500	-123.039391
17906.250000	-123.078369
17929.687500	-123.164078
17953.125000	-123.196182
17976.562500	-122.629288
18000.000000	-121.284943
18023.437500	-122.445160
18046.875000	-123.030701
18070.312500	-123.096977
18093.750000	-123.124763
18117.187500	-123.044762
18140.625000	-123.069450
18164.062500	-123.161911
18187.500000	-123.248795
18210.937500	-123.259293
18234.375000	-123.147919
18257.812500	-123.096428
18281.250000	-123.123825
18304.687500	-123.159599
18328.125000	-123.286438
18351.562500	-123.249596
18375.000000	-123.237808
18398.437500	-123.161514
18421.875000	-123.110817
18445.312500	-123.108719
18468.750000	-123.079765
18492.187500	-123.126656
18515.625000	-123.108116
18539.062500	-122.872559
18562.500000	-122.531830
18585.937500	-122.303513
18609.375000	-122.392288
18632.812500	-122.899208
18656.250000	-123.007942
18679.687500	-123.070801
18703.125000	-123.059967
18726.562500	-123.073608
18750.000000	-123.055740
18773.437500	-122.952248
18796.875000	-122.882362
18820.312500	-122.695168
18843.750000	-122.427246
18867.187500	-122.236206
18890.625000	-122.255119
18914.062500	-122.310646
18937.500000	-122.240494
18960.937500	-122.285866
18984.375000	-122.120392
19007.812500	-121.722397
19031.250000	-121.275795
19054.687500	-120.732735
19078.125000	-119.248634
19101.562500	-116.298920
19125.000000	-113.171684
19148.437500	-110.875282
19171.875000	-109.740196
19195.312500	-108.388176
19218.750000	-107.296013
19242.187500	-108.051277
19265.625000	-109.540718
19289.062500	-110.134193
19312.500000	-110.854240
19335.937500	-111.647522
19359.375000	-112.671135
19382.812500	-113.229416
19406.250000	-113.569328
19429.687500	-114.893555
19453.125000	-116.663612
19476.562500	-117.696548
19500.000000	-118.231590
19523.437500	-119.479950
19546.875000	-120.146698
19570.312500	-120.376686
19593.750000	-120.397507
19617.187500	-120.407372
19640.625000	-120.380089
19664.062500	-120.350563
19687.500000	-120.592888
19710.937500	-120.896530
19734.375000	-120.934784
19757.812500	-121.013931
19781.250000	-121.402397
19804.687500	-121.924850
19828.125000	-121.772621
19851.562500	-121.858284
19875.000000	-122.229248
19898.437500	-122.692291
19921.875000	-122.798210
19945.312500	-122.597786
19968.750000	-122.635948
19992.187500	-122.821671
20015.625000	-122.668335
20039.062500	-122.456039
20062.500000	-122.241669
20085.937500	-122.341843
20109.375000	-120.022408
20132.812500	-115.804863
20156.250000	-119.010963
20179.687500	-121.934959
20203.125000	-122.054169
20226.562500	-121.926003
20250.000000	-121.602013
20273.437500	-121.714737
20296.875000	-121.984238
20320.312500	-122.058777
20343.750000	-122.052940
20367.187500	-122.065697
20390.625000	-122.161690
20414.062500	-122.340668
20437.500000	-122.459244
20460.937500	-122.334869
20484.375000	-122.199760
20507.812500	-122.294083
20531.250000	-122.400963
20554.687500	-122.390259
20578.125000	-122.416290
20601.562500	-122.568069
20625.000000	-122.633514
20648.437500	-122.741524
20671.875000	-122.807442
20695.312500	-122.890617
20718.750000	-123.058311
20742.187500	-123.142220
20765.625000	-123.137024
20789.062500	-123.136322
20812.500000	-123.215355
20835.937500	-123.321793
20859.375000	-123.396782
20882.812500	-123.334587
20906.250000	-123.332603
20929.687500	-123.422707
20953.125000	-123.454185
20976.562500	-123.015343
21000.000000	-121.899513
21023.437500	-122.504295
21046.875000	-122.720032
21070.312500	-122.909752
21093.750000	-123.134659
21117.187500	-123.109344
21140.625000	-122.923264
21164.062500	-123.037254
21187.500000	-123.303772
21210.937500	-123.442642
21234.375000	-123.447014
21257.812500	-123.537498
21281.250000	-123.488838
21304.687500	-123.446327
21328.125000	-123.479538
21351.562500	-123.493500
21375.000000	-123.575577
21398.437500	-123.558334
21421.875000	-123.521400
21445.312500	-123.514595
21468.750000	-123.486267
21492.187500	-123.466049
21515.625000	-123.471756
21539.062500	-123.506516
21562.500000	-123.464546
21585.937500	-123.449974
21609.375000	-123.479187
21632.812500	-123.466911
21656.250000	-123.407196
21679.687500	-123.376930
21703.125000	-123.427902
21726.562500	-123.397720
21750.000000	-123.477112
21773.437500	-123.408279
21796.875000	-123.346558
21820.312500	-123.418106
21843.750000	-123.477089
21867.187500	-123.395309
21890.625000	-123.365089
21914.062500	-123.426437
21937.500000	-123.433907
21960.937500	-123.387100
21984.375000	-123.369408
22007.812500	-123.352371
22031.250000	-123.350250
22054.687500	-123.391258
22078.125000	-123.345787
22101.562500	-123.251648
22125.000000	-123.070900
22148.437500	-122.887131
22171.875000	-122.791115
22195.312500	-122.809425
22218.750000	-122.595413
22242.187500	-122.330536
22265.625000	-122.266273
22289.062500	-122.318283
22312.500000	-122.406502
22335.937500	-122.361656
22359.375000	-122.353645
22382.812500	-122.271744
22406.250000	-122.268532
22429.687500	-122.440941
22453.125000	-122.489906
22476.562500	-122.344887
22500.000000	-121.951332
22523.437500	-122.445847
22546.875000	-122.624245
22570.312500	-122.750450
22593.750000	-122.811279
22617.187500	-122.765930
22640.625000	-122.664970
22664.062500	-122.539093
22687.500000	-122.370750
22710.937500	-122.354210
22734.375000	-122.206749
22757.812500	-122.052551
22781.250000	-122.065384
22804.687500	-121.991859
22828.125000	-122.102364
22851.562500	-122.107506
22875.000000	-121.801979
22898.437500	-121.939369
22921.875000	-122.239990
22945.312500	-122.434250
22968.750000	-122.460503
22992.187500	-122.469658
23015.625000	-122.765976
23039.062500	-122.975220
23062.500000	-123.022423
23085.937500	-123.011093
23109.375000	-123.040123
23132.812500	-123.100708
23156.250000	-123.217133
23179.687500	-123.278084
23203.125000	-123.282547
23226.562500	-123.305870
23250.000000	-123.363594
23273.437500	-123.396523
23296.875000	-123.326202
23320.312500	-123.320740
23343.750000	-123.253708
23367.187500	-123.162598
23390.625000	-123.155479
23414.062500	-123.155991
23437.500000	-123.255745
23460.937500	-123.308205
23484.375000	-123.215630
23507.812500	-123.239754
23531.250000	-123.245071
23554.687500	-123.310043
23578.125000	-123.489471
23601.562500	-123.544914
23625.000000	-123.443787
23648.437500	-123.500168
23671.875000	-123.546974
23695.312500	-123.660912
23718.750000	-123.720390
23742.187500	-123.751244
23765.625000	-123.733612
23789.062500	-123.769470
23812.500000	-123.802322
23835.937500	-123.862099
23859.375000	-123.887726
23882.812500	-123.781845
23906.250000	-123.802040
23929.687500	-123.845627
23953.125000	-123.815971
23976.562500	-123.769791
24000.000000	-123.513321
24023.437500	-123.814110
24046.875000	-123.885925
24070.312500	-123.794113
24093.750000	-123.888351
24117.187500	-123.882477
24140.625000	-123.843948
24164.062500	-123.789337
24187.500000	-123.862709
24210.937500	-123.884758
24234.375000	-123.890831
24257.812500	-123.916306
24281.250000	-123.968697
24304.687500	-123.988045
24328.125000	-123.981133
24351.562500	-123.998100
24375.000000	-124.004112
24398.437500	-123.858696
24421.875000	-123.908867
24445.312500	-123.960373
24468.750000	-123.964851
24492.187500	-123.942284
24515.625000	-123.995392
24539.062500	-123.998405
24562.500000	-123.973419
24585.937500	-123.968575
24609.375000	-124.000465
24632.812500	-123.907532
24656.250000	-123.979340
24679.687500	-123.997330
24703.125000	-123.939880
24726.562500	-123.971504
24750.000000	-123.984947
24773.437500	-123.954620
24796.875000	-124.002495
24820.312500	-123.959862
24843.750000	-123.866531
24867.187500	-123.978050
24890.625000	-123.980461
24914.062500	-123.973892
24937.500000	-123.908981
24960.937500	-123.937332
24984.375000	-123.965897
25007.812500	-124.005188
25031.250000	-124.023285
25054.687500	-124.034225
25078.125000	-124.020882
25101.562500	-123.958145
25125.000000	-123.971634
25148.437500	-123.938782
25171.875000	-123.926895
25195.312500	-123.852966
25218.750000	-123.747040
25242.187500	-123.688560
25265.625000	-123.711472
25289.062500	-123.815239
25312.500000	-123.887932
25335.937500	-123.840393
25359.375000	-123.698845
25382.812500	-123.652725
25406.250000	-123.796532
25429.687500	-123.911293
25453.125000	-124.003242
25476.562500	-123.934113
25500.000000	-123.764793
25523.437500	-123.898697
25546.875000	-123.960197
25570.312500	-124.003647
25593.750000	-124.017998
25617.187500	-124.076103
25640.625000	-124.173294
25664.062500	-124.117645
25687.500000	-124.088860
25710.937500	-124.047157
25734.375000	-124.067604
25757.812500	-124.117828
25781.250000	-124.188675
25804.687500	-124.029984
25828.125000	-124.049377
25851.562500	-124.081978
25875.000000	-124.071182
25898.437500	-124.033234
25921.875000	-124.119682
25945.312500	-124.087730
25968.750000	-124.034119
25992.187500	-124.051682
26015.625000	-124.121124
26039.062500	-124.069221
26062.500000	-124.051918
26085.937500	-124.061592
26109.375000	-124.036293
26132.812500	-124.049904
26156.250000	-124.064873
26179.687500	-124.019585
26203.125000	-124.025162
26226.562500	-124.092384
26250.000000	-124.068130
26273.437500	-124.152039
26296.875000	-124.122070
26320.312500	-124.087975
26343.750000	-124.110077
26367.187500	-124.068207
26390.625000	-124.056740
26414.062500	-124.024170
26437.500000	-124.092827
26460.937500	-124.151848
26484.375000	-124.173630
26507.812500	-124.237038
26531.250000	-124.205391
26554.687500	-124.160233
26578.125000	-124.120743
26601.562500	-124.109856
26625.000000	-124.119202
26648.437500	-124.140472
26671.875000	-124.119423
26695.312500	-124.146484
26718.750000	-124.119980
26742.187500	-124.154747
26765.625000	-124.129021
26789.062500	-124.128998
26812.500000	-124.078163
26835.937500	-124.107857
26859.375000	-124.139305
26882.812500	-124.103935
26906.250000	-124.147507
26929.687500	-124.126854
26953.125000	-124.152161
26976.562500	-124.165939
27000.000000	-124.044792
27023.437500	-124.097130
27046.875000	-124.087196
27070.312500	-124.074593
27093.750000	-124.193901
27117.187500	-124.165138
27140.625000	-124.062965
27164.062500	-124.074844
27187.500000	-124.125298
27210.937500	-124.130066
27234.375000	-124.184799
27257.812500	-124.192772
27281.250000	-124.203018
27304.687500	-124.217453
27328.125000	-124.139175
27351.562500	-124.043777
27375.000000	-124.099762
27398.437500	-124.164558
27421.875000	-124.195442
27445.312500	-124.202652
27468.750000	-124.232605
27492.187500	-124.106369
27515.625000	-124.110954
27539.062500	-124.181870
27562.500000	-124.205574
27585.937500	-124.323090
27609.375000	-124.252060
27632.812500	-124.100250
27656.250000	-124.077873
27679.687500	-124.205078
27703.125000	-124.209351
27726.562500	-124.134483
27750.000000	-124.183090
27773.437500	-124.172356
27796.875000	-124.166817
27820.312500	-124.188950
27843.750000	-124.176773
27867.187500	-124.162079
27890.625000	-124.234230
27914.062500	-124.200874
27937.500000	-124.253304
27960.937500	-124.308891
27984.375000	-124.249794
28007.812500	-124.211319
28031.250000	-124.208443
28054.687500	-124.230690
28078.125000	-124.218483
28101.562500	-124.157684
28125.000000	-124.159760
28148.437500	-124.257973
28171.875000	-124.206932
28195.312500	-124.229073
28218.750000	-124.270821
28242.187500	-124.215767
28265.625000	-124.166512
28289.062500	-124.228355
28312.500000	-124.271248
28335.937500	-124.195808
28359.375000	-124.220703
28382.812500	-124.277695
28406.250000	-124.226242
28429.687500	-124.243141
28453.125000	-124.239014
28476.562500	-124.247063
28500.000000	-124.130814
28523.437500	-124.249321
28546.875000	-124.327316
28570.312500	-124.210747
28593.750000	-124.176338
28617.187500	-124.212059
28640.625000	-124.269592
28664.062500	-124.277885
28687.500000	-124.232399
28710.937500	-124.229683
28734.375000	-124.255562
28757.812500	-124.250275
28781.250000	-124.255501
28804.687500	-124.210846
28828.125000	-124.226997
28851.562500	-124.295677
28875.000000	-124.302437
28898.437500	-124.248955
28921.875000	-124.297813
28945.312500	-124.317207
28968.750000	-124.337296
28992.187500	-124.251167
29015.625000	-124.243347
29039.062500	-124.248001
29062.500000	-124.303627
29085.937500	-124.318848
29109.375000	-124.263771
29132.812500	-124.239189
29156.250000	-124.296364
29179.687500	-124.318947
29203.125000	-124.315689
29226.562500	-124.380478
29250.000000	-124.302109
29273.437500	-124.266434
29296.875000	-124.270569
29320.312500	-124.303650
29343.750000	-124.330406
29367.187500	-124.302811
29390.625000	-124.265526
29414.062500	-124.229897
29437.500000	-124.076790
29460.937500	-123.967659
29484.375000	-124.015251
29507.812500	-124.136665
29531.250000	-124.235603
29554.687500	-124.154572
29578.125000	-124.062462
29601.562500	-124.032539
29625.000000	-124.110275
29648.437500	-124.171944
29671.875000	-124.375313
29695.312500	-124.378632
29718.750000	-124.325043
29742.187500	-124.297867
29765.625000	-124.276901
29789.062500	-124.292282
29812.500000	-124.345413
29835.937500	-124.356232
29859.375000	-124.348015
29882.812500	-124.253670
29906.250000	-124.239914
29929.687500	-124.352272
29953.125000	-124.386932
29976.562500	-124.261337
30000.000000	-123.976837
30023.437500	-124.200615
30046.875000	-124.338615
30070.312500	-124.355331
30093.750000	-124.286850
30117.187500	-124.371651
30140.625000	-124.367882
30164.062500	-124.422035
30187.500000	-124.365326
30210.937500	-124.347397
30234.375000	-124.319481
30257.812500	-124.324066
30281.250000	-124.273689
30304.687500	-124.292938
30328.125000	-124.441467
30351.562500	-124.368179
30375.000000	-124.356735
30398.437500	-124.309235
30421.875000	-124.408432
30445.312500	-124.447258
30468.750000	-124.363625
30492.187500	-124.242500
30515.625000	-124.324921
30539.062500	-124.343788
30562.500000	-124.375061
30585.937500	-124.430038
30609.375000	-124.389717
30632.812500	-124.400360
30656.250000	-124.395477
30679.687500	-124.413498
30703.125000	-124.443291
30726.562500	-124.427322
30750.000000	-124.407829
30773.437500	-124.426918
30796.875000	-124.481262
30820.312500	-124.404198
30843.750000	-124.422745
30867.187500	-124.424301
30890.625000	-124.374557
30914.062500	-124.311287
30937.500000	-124.379219
30960.937500	-124.409576
30984.375000	-124.433113
31007.812500	-124.512260
31031.250000	-124.454842
31054.687500	-124.472374
31078.125000	-124.457413
31101.562500	-124.467682
31125.000000	-124.394348
31148.437500	-124.374214
31171.875000	-124.373680
31195.312500	-124.351540
31218.750000	-124.378181
31242.187500	-124.455818
31265.625000	-124.510353
31289.062500	-124.495537
31312.500000	-124.460625
31335.937500	-124.442734
31359.375000	-124.365395
31382.812500	-124.370285
31406.250000	-124.433968
31429.687500	-124.403137
31453.125000	-124.433846
31476.562500	-124.262863
31500.000000	-123.790306
31523.437500	-124.233597
31546.875000	-124.429878
31570.312500	-124.458694
31593.750000	-124.406662
31617.187500	-124.432030
31640.625000	-124.488350
31664.062500	-124.476273
31687.500000	-124.451874
31710.937500	-124.393799
31734.375000	-124.393204
31757.812500	-124.445778
31781.250000	-124.452888
31804.687500	-124.417747
31828.125000	-124.430244
31851.562500	-124.357376
31875.000000	-124.402885
31898.437500	-124.488380
31921.875000	-124.450371
31945.312500	-124.490158
31968.750000	-124.447868
31992.187500	-124.401672
32015.625000	-124.436020
32039.062500	-124.494743
32062.500000	-124.476257
32085.937500	-124.509293
32109.375000	-124.527466
32132.812500	-124.503441
32156.250000	-124.442810
32179.687500	-124.408287
32203.125000	-124.422974
32226.562500	-124.480492
32250.000000	-124.492973
32273.437500	-124.516907
32296.875000	-124.470802
32320.312500	-124.439705
32343.750000	-124.419769
32367.187500	-124.426964
32390.625000	-124.476883
32414.062500	-124.492355
32437.500000	-124.465912
32460.937500	-124.506409
32484.375000	-124.493279
32507.812500	-124.419189
32531.250000	-124.507317
32554.687500	-124.510529
32578.125000	-124.477394
32601.562500	-124.433411
32625.000000	-124.394669
32648.437500	-124.467987
32671.875000	-124.502052
32695.312500	-124.516571
32718.750000	-124.509651
32742.187500	-124.489395
32765.625000	-124.467316
32789.062500	-124.542816
32812.500000	-124.535347
32835.937500	-124.496796
32859.375000	-124.587265
32882.812500	-124.545876
32906.250000	-124.519241
32929.687500	-124.503578
32953.125000	-124.530655
32976.562500	-124.313927
33000.000000	-123.861275
33023.437500	-124.404678
33046.875000	-124.521111
33070.312500	-124.507233
33093.750000	-124.610298
33117.187500	-124.603966
33140.625000	-124.593605
33164.062500	-124.566704
33187.500000	-124.574310
33210.937500	-124.584579
33234.375000	-124.557007
33257.812500	-124.601112
33281.250000	-124.539429
33304.687500	-124.461678
33328.125000	-124.474304
33351.562500	-124.516495
33375.000000	-124.559494
33398.437500	-124.585419
33421.875000	-124.501556
33445.312500	-124.560509
33468.750000	-124.518517
33492.187500	-124.430557
33515.625000	-124.417458
33539.062500	-124.454781
33562.500000	-124.512108
33585.937500	-124.568108
33609.375000	-124.549675
33632.812500	-124.450745
33656.250000	-124.483162
33679.687500	-124.488747
33703.125000	-124.521759
33726.562500	-124.495537
33750.000000	-124.503624
33773.437500	-124.501007
33796.875000	-124.501137
33820.312500	-124.489609
33843.750000	-124.489182
33867.187500	-124.491646
33890.625000	-124.538933
33914.062500	-124.552376
33937.500000	-124.557678
33960.937500	-124.609276
33984.375000	-124.558746
34007.812500	-124.565811
34031.250000	-124.614349
34054.687500	-124.592453
34078.125000	-124.620865
34101.562500	-124.571053
34125.000000	-124.529434
34148.437500	-124.494408
34171.875000	-124.561684
34195.312500	-124.522827
34218.750000	-124.468948
34242.187500	-124.515358
34265.625000	-124.587440
34289.062500	-124.544769
34312.500000	-124.606659
34335.937500	-124.660782
34359.375000	-124.512497
34382.812500	-124.566422
34406.250000	-124.541504
34429.687500	-124.615005
34453.125000	-124.608894
34476.562500	-124.506836
34500.000000	-124.161964
34523.437500	-124.428818
34546.875000	-124.564178
34570.312500	-124.561935
34593.750000	-124.668350
34617.187500	-124.659866
34640.625000	-124.582481
34664.062500	-124.571732
34687.500000	-124.533524
34710.937500	-124.511871
34734.375000	-124.511208
34757.812500	-124.575752
34781.250000	-124.648766
34804.687500	-124.618866
34828.125000	-124.557587
34851.562500	-124.579903
34875.000000	-124.609451
34898.437500	-124.674103
34921.875000	-124.653885
34945.312500	-124.657356
34968.750000	-124.681671
34992.187500	-124.659264
35015.625000	-124.572563
35039.062500	-124.574875
35062.500000	-124.540451
35085.937500	-124.589897
35109.375000	-124.604782
35132.812500	-124.582695
35156.250000	-124.663597
35179.687500	-124.635025
35203.125000	-124.691208
35226.562500	-124.613663
35250.000000	-124.531265
35273.437500	-124.530731
35296.875000	-124.586510
35320.312500	-124.594604
35343.750000	-124.555870
35367.187500	-124.590004
35390.625000	-124.576447
35414.062500	-124.575478
35437.500000	-124.641441
35460.937500	-124.664825
35484.375000	-124.643211
35507.812500	-124.640060
35531.250000	-124.626160
35554.687500	-124.722275
35578.125000	-124.684853
35601.562500	-124.702919
35625.000000	-124.688828
35648.437500	-124.710594
35671.875000	-124.723328
35695.312500	-124.717499
35718.750000	-124.676300
35742.187500	-124.796959
35765.625000	-124.708115
35789.062500	-124.719322
35812.500000	-124.795639
35835.937500	-124.710243
35859.375000	-124.619476
35882.812500	-124.635384
35906.250000	-124.732452
35929.687500	-124.796509
35953.125000	-124.735962
35976.562500	-124.651787
36000.000000	-124.597389
36023.437500	-124.650391
36046.875000	-124.696281
36070.312500	-124.763016
36093.750000	-124.749001
36117.187500	-124.785309
36140.625000	-124.828812
36164.062500	-124.854324
36187.500000	-124.821526
36210.937500	-124.746735
36234.375000	-124.715263
36257.812500	-124.754196
36281.250000	-124.696213
36304.687500	-124.659828
36328.125000	-124.688934
36351.562500	-124.746910
36375.000000	-124.776550
36398.437500	-124.775017
36421.875000	-124.705826
36445.312500	-124.684731
36468.750000	-124.677101
36492.187500	-124.782181
36515.625000	-124.734390
36539.062500	-124.738609
36562.500000	-124.759598
36585.937500	-124.758919
36609.375000	-124.756866
36632.812500	-124.704102
36656.250000	-124.788551
36679.687500	-124.818954
36703.125000	-124.794479
36726.562500	-124.754700
36750.000000	-124.698380
36773.437500	-124.694847
36796.875000	-124.735947
36820.312500	-124.745354
36843.750000	-124.754944
36867.187500	-124.793335
36890.625000	-124.807846
36914.062500	-124.861496
36937.500000	-124.784096
36960.937500	-124.706802
36984.375000	-124.779747
37007.812500	-124.804817
37031.250000	-124.781754
37054.687500	-124.814110
37078.125000	-124.815140
37101.562500	-124.824654
37125.000000	-124.794418
37148.437500	-124.830704
37171.875000	-124.774979
37195.312500	-124.718849
37218.750000	-124.692070
37242.187500	-124.770531
37265.625000	-124.796173
37289.062500	-124.739677
37312.500000	-124.770683
37335.937500	-124.758240
37359.375000	-124.759346
37382.812500	-124.801910
37406.250000	-124.802170
37429.687500	-124.796227
37453.125000	-124.768997
37476.562500	-124.772270
37500.000000	-124.739693
37523.437500	-124.751907
37546.875000	-124.816605
37570.312500	-124.802002
37593.750000	-124.813248
37617.187500	-124.811745
37640.625000	-124.793617
37664.062500	-124.835503
37687.500000	-124.791595
37710.937500	-124.810356
37734.375000	-124.767662
37757.812500	-124.810074
37781.250000	-124.786255
37804.687500	-124.795456
37828.125000	-124.821877
37851.562500	-124.819817
37875.000000	-124.732521
37898.437500	-124.708366
37921.875000	-124.742470
37945.312500	-124.773140
37968.750000	-124.760384
37992.187500	-124.705948
38015.625000	-124.721779
38039.062500	-124.626991
38062.500000	-124.523354
38085.937500	-124.537178
38109.375000	-124.506630
38132.812500	-124.482971
38156.250000	-124.394958
38179.687500	-124.273666
38203.125000	-124.178391
38226.562500	-124.029503
38250.000000	-123.606361
38273.437500	-122.900566
38296.875000	-122.233116
38320.312500	-121.739525
38343.750000	-121.121536
38367.187500	-120.703804
38390.625000	-120.826332
38414.062500	-121.466309
38437.500000	-122.007149
38460.937500	-121.961510
38484.375000	-121.594398
38507.812500	-121.505447
38531.250000	-121.711769
38554.687500	-122.053528
38578.125000	-122.448975
38601.562500	-122.471954
38625.000000	-122.670113
38648.437500	-122.965363
38671.875000	-123.088608
38695.312500	-123.168678
38718.750000	-123.388382
38742.187500	-123.612343
38765.625000	-123.600143
38789.062500	-123.586380
38812.500000	-123.579170
38835.937500	-123.670967
38859.375000	-123.798401
38882.812500	-123.990524
38906.250000	-124.068817
38929.687500	-124.045044
38953.125000	-124.065193
38976.562500	-124.198380
39000.000000	-124.202866
39023.437500	-124.538383
39046.875000	-124.649765
39070.312500	-124.704277
39093.750000	-124.755882
39117.187500	-124.707390
39140.625000	-124.645424
39164.062500	-124.688553
39187.500000	-124.654434
39210.937500	-124.719452
39234.375000	-124.723946
39257.812500	-124.745056
39281.250000	-124.805939
39304.687500	-124.776222
39328.125000	-124.778801
39351.562500	-124.741592
39375.000000	-124.773521
39398.437500	-124.833366
39421.875000	-124.843575
39445.312500	-124.814415
39468.750000	-124.795929
39492.187500	-124.758629
39515.625000	-124.748795
39539.062500	-124.780518
39562.500000	-124.837036
39585.937500	-124.850082
39609.375000	-124.815514
39632.812500	-124.794128
39656.250000	-124.793373
39679.687500	-124.843521
39703.125000	-124.847389
39726.562500	-124.840706
39750.000000	-124.922379
39773.437500	-124.914452
39796.875000	-124.907639
39820.312500	-124.882774
39843.750000	-124.883545
39867.187500	-124.941154
39890.625000	-124.919258
39914.062500	-124.923386
39937.500000	-124.921989
39960.937500	-124.895844
39984.375000	-124.978111
40007.812500	-124.950943
40031.250000	-124.925018
40054.687500	-124.871529
40078.125000	-124.944016
40101.562500	-124.988556
40125.000000	-124.880615
40148.437500	-124.887802
40171.875000	-125.003510
40195.312500	-125.059158
40218.750000	-125.001595
40242.187500	-124.509720
40265.625000	-122.733070
40289.062500	-123.994301
40312.500000	-124.932022
40335.937500	-124.913811
40359.375000	-124.909241
40382.812500	-124.938011
40406.250000	-124.956528
40429.687500	-124.998894
40453.125000	-124.992989
40476.562500	-124.874222
40500.000000	-124.502785
40523.437500	-124.808601
40546.875000	-124.913376
40570.312500	-124.940041
40593.750000	-124.927925
40617.187500	-124.928413
40640.625000	-125.006042
40664.062500	-124.980728
40687.500000	-124.923584
40710.937500	-124.974213
40734.375000	-125.064827
40757.812500	-125.004639
40781.250000	-125.012642
40804.687500	-125.000015
40828.125000	-124.939842
40851.562500	-124.961853
40875.000000	-125.021713
40898.437500	-125.001900
40921.875000	-124.919594
40945.312500	-124.899979
40968.750000	-125.047447
40992.187500	-125.061775
41015.625000	-125.073547
41039.062500	-125.031609
41062.500000	-125.029388
41085.937500	-125.041641
41109.375000	-124.945580
41132.812500	-124.996338
41156.250000	-125.058823
41179.687500	-125.087700
41203.125000	-125.140312
41226.562500	-125.116684
41250.000000	-125.020882
41273.437500	-125.148788
41296.875000	-125.166550
41320.312500	-125.130424
41343.750000	-125.125061
41367.187500	-125.108986
41390.625000	-125.089958
41414.062500	-125.137161
41437.500000	-125.147514
41460.937500	-125.147614
41484.375000	-125.044830
41507.812500	-125.076828
41531.250000	-125.149658
41554.687500	-125.109909
41578.125000	-125.093536
41601.562500	-125.108376
41625.000000	-125.176956
41648.437500	-125.208366
41671.875000	-125.267929
41695.312500	-125.198494
41718.750000	-125.190117
41742.187500	-125.189911
41765.625000	-125.165451
41789.062500	-125.196716
41812.500000	-125.182129
41835.937500	-125.197838
41859.375000	-125.209190
41882.812500	-125.215881
41906.250000	-125.237953
41929.687500	-125.243736
41953.125000	-125.185120
41976.562500	-125.077377
42000.000000	-124.726051
42023.437500	-125.112892
42046.875000	-125.260597
42070.312500	-125.366287
42093.750000	-125.389679
42117.187500	-125.269302
42140.625000	-125.178482
42164.062500	-125.254532
42187.500000	-125.309738
42210.937500	-125.209106
42234.375000	-125.177719
42257.812500	-125.216446
42281.250000	-125.293495
42304.687500	-125.345970
42328.125000	-125.300125
42351.562500	-125.325317
42375.000000	-125.367668
42398.437500	-125.342178
42421.875000	-125.400879
42445.312500	-125.412437
42468.750000	-125.378082
42492.187500	-125.357216
42515.625000	-125.351822
42539.062500	-125.341629
42562.500000	-125.344101
42585.937500	-125.392204
42609.375000	-125.479088
42632.812500	-125.435623
42656.250000	-125.410179
42679.687500	-125.450005
42703.125000	-125.461945
42726.562500	-125.433861
42750.000000	-125.438698
42773.437500	-125.418854
42796.875000	-125.435745
42820.312500	-125.464989
42843.750000	-125.472794
42867.187500	-125.480873
42890.625000	-125.485695
42914.062500	-125.434738
42937.500000	-125.497047
42960.937500	-125.549263
42984.375000	-125.521904
43007.812500	-125.579025
43031.250000	-125.590668
43054.687500	-125.622330
43078.125000	-125.548676
43101.562500	-125.570747
43125.000000	-125.608231
43148.437500	-125.641724
43171.875000	-125.629097
43195.312500	-125.616341
43218.750000	-125.654060
43242.187500	-125.663834
43265.625000	-125.654900
43289.062500	-125.676804
43312.500000	-125.680992
43335.937500	-125.681824
43359.375000	-125.829567
43382.812500	-125.748367
43406.250000	-125.700050
43429.687500	-125.722237
43453.125000	-125.741066
43476.562500	-125.570190
43500.000000	-125.159760
43523.437500	-125.628929
43546.875000	-125.914520
43570.312500	-125.838181
43593.750000	-125.765472
43617.187500	-125.780655
43640.625000	-125.870293
43664.062500	-125.896309
43687.500000	-125.955063
43710.937500	-125.990692
43734.375000	-125.980263
43757.812500	-125.896820
43781.250000	-125.959579
43804.687500	-125.942085
43828.125000	-125.896370
43851.562500	-125.947159
43875.000000	-125.986786
43898.437500	-125.971855
43921.875000	-125.965332
43945.312500	-125.969719
43968.750000	-126.013107
43992.187500	-125.976936
44015.625000	-125.981941
44039.062500	-125.955566
44062.500000	-125.992188
44085.937500	-126.103508
44109.375000	-126.077644
44132.812500	-126.003372
44156.250000	-126.089508
44179.687500	-126.065704
44203.125000	-126.078918
44226.562500	-126.198845
44250.000000	-126.247139
44273.437500	-126.192795
44296.875000	-126.178131
44320.312500	-126.209419
44343.750000	-126.176758
44367.187500	-126.239281
44390.625000	-126.283783
44414.062500	-126.289513
44437.500000	-126.290802
44460.937500	-126.308998
44484.375000	-126.340729
44507.812500	-126.450829
44531.250000	-126.437744
44554.687500	-126.360329
44578.125000	-126.391922
44601.562500	-126.443474
44625.000000	-126.434570
44648.437500	-126.403610
44671.875000	-126.499062
44695.312500	-126.484436
44718.750000	-126.502808
44742.187500	-126.509422
44765.625000	-126.498436
44789.062500	-126.552094
44812.500000	-126.569595
44835.937500	-126.577461
44859.375000	-126.671928
44882.812500	-126.648163
44906.250000	-126.604683
44929.687500	-126.638962
44953.125000	-126.658340
44976.562500	-126.535156
45000.000000	-126.244431
45023.437500	-126.589714
45046.875000	-126.767685
45070.312500	-126.849312
45093.750000	-126.841469
45117.187500	-126.858543
45140.625000	-126.924042
45164.062500	-126.914635
45187.500000	-126.865379
45210.937500	-126.894310
45234.375000	-126.939178
45257.812500	-127.011421
45281.250000	-126.971115
45304.687500	-126.984131
45328.125000	-126.961098
45351.562500	-127.005585
45375.000000	-127.045334
45398.437500	-127.034393
45421.875000	-127.055054
45445.312500	-127.020340
45468.750000	-127.046112
45492.187500	-127.057030
45515.625000	-127.073143
45539.062500	-127.050766
45562.500000	-127.068298
45585.937500	-127.118820
45609.375000	-127.140808
45632.812500	-127.178169
45656.250000	-127.233307
45679.687500	-127.241241
45703.125000	-127.244041
45726.562500	-127.283730
45750.000000	-127.320251
45773.437500	-127.413338
45796.875000	-127.391014
45820.312500	-127.379967
45843.750000	-127.387222
45867.187500	-127.386002
45890.625000	-127.458344
45914.062500	-127.479851
45937.500000	-127.455025
45960.937500	-127.455589
45984.375000	-127.545540
46007.812500	-127.614685
46031.250000	-127.671341
46054.687500	-127.657852
46078.125000	-127.666428
46101.562500	-127.666702
46125.000000	-127.649498
46148.437500	-127.714874
46171.875000	-127.681541
46195.312500	-127.698967
46218.750000	-127.705200
46242.187500	-127.775009
46265.625000	-127.789185
46289.062500	-127.788322
46312.500000	-127.825821
46335.937500	-127.856743
46359.375000	-127.913963
46382.812500	-127.868904
46406.250000	-127.880974
46429.687500	-127.878296
46453.125000	-127.911720
46476.562500	-127.836792
46500.000000	-127.623901
46523.437500	-127.882355
46546.875000	-127.999344
46570.312500	-128.017136
46593.750000	-127.934258
46617.187500	-128.023285
46640.625000	-128.100952
46664.062500	-128.185654
46687.500000	-128.185913
46710.937500	-128.128510
46734.375000	-128.114517
46757.812500	-128.143951
46781.250000	-128.167862
46804.687500	-128.090179
46828.125000	-128.168213
46851.562500	-128.297012
46875.000000	-128.298889
46898.437500	-128.275909
46921.875000	-128.311050
46945.312500	-128.296753
46968.750000	-128.258438
46992.187500	-128.321655
47015.625000	-128.348602
47039.062500	-128.316574
47062.500000	-128.371399
47085.937500	-128.434647
47109.375000	-128.409851
47132.812500	-128.393814
47156.250000	-128.436310
47179.687500	-128.450668
47203.125000	-128.414856
47226.562500	-128.479904
47250.000000	-128.527588
47273.437500	-128.541550
47296.875000	-128.503159
47320.312500	-128.527390
47343.750000	-128.547150
47367.187500	-128.475021
47390.625000	-128.493103
47414.062500	-128.529755
47437.500000	-128.576782
47460.937500	-128.560120
47484.375000	-128.578384
47507.812500	-128.568100
47531.250000	-128.594513
47554.687500	-128.576004
47578.125000	-128.564514
47601.562500	-128.578766
47625.000000	-128.609329
47648.437500	-128.641479
47671.875000	-128.574646
47695.312500	-128.618347
47718.750000	-128.688812
47742.187500	-128.698700
47765.625000	-128.729553
47789.062500	-128.726196
47812.500000	-128.720200
47835.937500	-128.612030
47859.375000	-128.627838
47882.812500	-128.574280
47906.250000	-128.617569
47929.687500	-128.648636
47953.125000	-128.623047
47976.562500	-128.567612
