주파수 (Hz)	레벨 (dB)
23.437500	-100.463440
46.875000	-86.317749
70.312500	-72.153633
93.750000	-66.170250
117.187500	-62.069904
140.625000	-60.014610
164.062500	-59.482319
187.500000	-54.975002
210.937500	-54.628716
234.375000	-54.069721
257.812500	-50.840866
281.250000	-53.609592
304.687500	-56.558876
328.125000	-54.726570
351.562500	-52.548618
375.000000	-52.850147
398.437500	-52.739841
421.875000	-56.577011
445.312500	-55.808971
468.750000	-54.017124
492.187500	-57.065693
515.625000	-52.235855
539.062500	-52.615566
562.500000	-55.922688
585.937500	-54.697948
609.375000	-54.333553
632.812500	-53.605488
656.250000	-52.425194
679.687500	-51.883430
703.125000	-50.129829
726.562500	-56.265503
750.000000	-67.067169
773.437500	-61.298607
796.875000	-60.296337
820.312500	-62.621609
843.750000	-63.287811
867.187500	-61.712097
890.625000	-59.990948
914.062500	-65.980858
937.500000	-66.372276
960.937500	-70.409279
984.375000	-66.625542
1007.812500	-68.621643
1031.250000	-63.445305
1054.687500	-60.067551
1078.125000	-65.820938
1101.562500	-72.370293
1125.000000	-73.459946
1148.437500	-71.816338
1171.875000	-62.529728
1195.312500	-63.164192
1218.750000	-71.665207
1242.187500	-64.003448
1265.625000	-64.492889
1289.062500	-72.494087
1312.500000	-67.894348
1335.937500	-68.403999
1359.375000	-73.853760
1382.812500	-67.684776
1406.250000	-63.422592
1429.687500	-68.289856
1453.125000	-75.425026
1476.562500	-72.222244
1500.000000	-73.460938
1523.437500	-77.438606
1546.875000	-75.104530
1570.312500	-66.193970
1593.750000	-66.040039
1617.187500	-75.741631
1640.625000	-76.481430
1664.062500	-71.678772
1687.500000	-72.276451
1710.937500	-79.006805
1734.375000	-79.881477
1757.812500	-72.115967
1781.250000	-68.958267
1804.687500	-75.508965
1828.125000	-78.489288
1851.562500	-73.407593
1875.000000	-71.998245
1898.437500	-73.822220
1921.875000	-82.274460
1945.312500	-82.384483
1968.750000	-73.730286
1992.187500	-71.719521
2015.625000	-76.448372
2039.062500	-85.731255
2062.500000	-82.450775
2085.937500	-76.246391
2109.375000	-72.677094
2132.812500	-74.744705
2156.250000	-82.764114
2179.687500	-82.742744
2203.125000	-80.694946
2226.562500	-79.072487
2250.000000	-79.246254
2273.437500	-84.101364
2296.875000	-87.254494
2320.312500	-84.760513
2343.750000	-81.789780
2367.187500	-76.191246
2390.625000	-74.930199
2414.062500	-82.708984
2437.500000	-89.624168
2460.937500	-85.784775
2484.375000	-81.722397
2507.812500	-79.039864
2531.250000	-77.158455
2554.687500	-83.781036
2578.125000	-87.165253
2601.562500	-86.102943
2625.000000	-86.968697
2648.437500	-79.338623
2671.875000	-76.555824
2695.312500	-80.928528
2718.750000	-88.648254
2742.187500	-86.018944
2765.625000	-82.669998
2789.062500	-79.677795
2812.500000	-79.670891
2835.937500	-75.952141
2859.375000	-79.863808
2882.812500	-88.252739
2906.250000	-90.743294
2929.687500	-87.230240
2953.125000	-83.936119
2976.562500	-83.084686
3000.000000	-79.908607
3023.437500	-81.030060
3046.875000	-90.209641
3070.312500	-91.011917
3093.750000	-84.047760
3117.187500	-84.973984
3140.625000	-86.766144
3164.062500	-83.727211
3187.500000	-79.759247
3210.937500	-80.551521
3234.375000	-85.728065
3257.812500	-94.564064
3281.250000	-91.414101
3304.687500	-89.299355
3328.125000	-88.825859
3351.562500	-89.211960
3375.000000	-90.144699
3398.437500	-88.083832
3421.875000	-88.332619
3445.312500	-94.342102
3468.750000	-94.563919
3492.187500	-92.073189
3515.625000	-93.348686
3539.062500	-89.732475
3562.500000	-86.024261
3585.937500	-87.268761
3609.375000	-88.457230
3632.812500	-90.241478
3656.250000	-91.956146
3679.687500	-96.299545
3703.125000	-96.162445
3726.562500	-97.569275
3750.000000	-89.942322
3773.437500	-86.427429
3796.875000	-90.427765
3820.312500	-90.488770
3843.750000	-89.801331
3867.187500	-91.285538
3890.625000	-97.482979
3914.062500	-102.871216
3937.500000	-95.883797
3960.937500	-94.669090
3984.375000	-94.631569
4007.812500	-93.890160
4031.250000	-95.162292
4054.687500	-91.237236
4078.125000	-91.579750
4101.562500	-94.278419
4125.000000	-96.766304
4148.437500	-99.771049
4171.875000	-100.932213
4195.312500	-97.816483
4218.750000	-94.752510
4242.187500	-89.864914
4265.625000	-91.805618
4289.062500	-89.780022
4312.500000	-88.090126
4335.937500	-90.068466
4359.375000	-90.487877
4382.812500	-95.388916
4406.250000	-103.018242
4429.687500	-101.124649
4453.125000	-100.676483
4476.562500	-94.026726
4500.000000	-92.886169
4523.437500	-95.058655
4546.875000	-97.752884
4570.312500	-98.680489
4593.750000	-95.397850
4617.187500	-98.066750
4640.625000	-95.636261
4664.062500	-94.275848
4687.500000	-95.065361
4710.937500	-97.940018
4734.375000	-96.093948
4757.812500	-94.080513
4781.250000	-96.704208
4804.687500	-102.020630
4828.125000	-99.714752
4851.562500	-96.236717
4875.000000	-98.081688
4898.437500	-100.767532
4921.875000	-97.920914
4945.312500	-98.429565
4968.750000	-99.456039
4992.187500	-100.949966
5015.625000	-106.968132
5039.062500	-103.593849
5062.500000	-100.484535
5085.937500	-102.324661
5109.375000	-107.797943
5132.812500	-105.291916
5156.250000	-100.478439
5179.687500	-99.748909
5203.125000	-102.386337
5226.562500	-101.610123
5250.000000	-99.178864
5273.437500	-100.872620
5296.875000	-106.117981
5320.312500	-108.093437
5343.750000	-103.187889
5367.187500	-99.713921
5390.625000	-100.145393
5414.062500	-95.649826
5437.500000	-96.125328
5460.937500	-101.612152
5484.375000	-99.228966
5507.812500	-99.719460
5531.250000	-101.718468
5554.687500	-96.616913
5578.125000	-99.593491
5601.562500	-107.643539
5625.000000	-107.454834
5648.437500	-109.936684
5671.875000	-107.298019
5695.312500	-103.428581
5718.750000	-97.971001
5742.187500	-94.124184
5765.625000	-97.277740
5789.062500	-104.512840
5812.500000	-97.780182
5835.937500	-93.741302
5859.375000	-95.845673
5882.812500	-100.434235
5906.250000	-99.503342
5929.687500	-101.891960
5953.125000	-103.705338
5976.562500	-103.693680
6000.000000	-108.606728
6023.437500	-110.024117
6046.875000	-112.290627
6070.312500	-108.149109
6093.750000	-105.971344
6117.187500	-108.628517
6140.625000	-108.795471
6164.062500	-101.531570
6187.500000	-98.935516
6210.937500	-103.182892
6234.375000	-110.426498
6257.812500	-112.534019
6281.250000	-109.186150
6304.687500	-107.379608
6328.125000	-109.826332
6351.562500	-110.923203
6375.000000	-105.172455
6398.437500	-106.126572
6421.875000	-112.726669
6445.312500	-115.118713
6468.750000	-111.093239
6492.187500	-108.178436
6515.625000	-108.658409
6539.062500	-111.675919
6562.500000	-109.275055
6585.937500	-104.095383
6609.375000	-103.370445
6632.812500	-106.575096
6656.250000	-106.034218
6679.687500	-100.977684
6703.125000	-104.004051
6726.562500	-106.865883
6750.000000	-109.716515
6773.437500	-106.763336
6796.875000	-106.902100
6820.312500	-103.858612
6843.750000	-107.319565
6867.187500	-115.454788
6890.625000	-112.942574
6914.062500	-113.285690
6937.500000	-117.254921
6960.937500	-114.595558
6984.375000	-111.191895
7007.812500	-112.256081
7031.250000	-108.637627
7054.687500	-110.652954
7078.125000	-118.140839
7101.562500	-119.184654
7125.000000	-114.953011
7148.437500	-112.756798
7171.875000	-116.865677
7195.312500	-116.300301
7218.750000	-115.676590
7242.187500	-117.514214
7265.625000	-114.923416
7289.062500	-114.572250
7312.500000	-114.936691
7335.937500	-116.934799
7359.375000	-117.910233
7382.812500	-115.500702
7406.250000	-111.396042
7429.687500	-113.082512
7453.125000	-109.582474
7476.562500	-104.794876
7500.000000	-106.074944
7523.437500	-107.929123
7546.875000	-111.858307
7570.312500	-111.698647
7593.750000	-112.912392
7617.187500	-114.446312
7640.625000	-116.205444
7664.062500	-114.986900
7687.500000	-112.722214
7710.937500	-115.767845
7734.375000	-117.347229
7757.812500	-114.776596
7781.250000	-111.304085
7804.687500	-110.012856
7828.125000	-110.836662
7851.562500	-110.518211
7875.000000	-111.062271
7898.437500	-114.587128
7921.875000	-119.126877
7945.312500	-120.623260
7968.750000	-119.731285
7992.187500	-117.142868
8015.625000	-117.213387
8039.062500	-120.465469
8062.500000	-119.987328
8085.937500	-118.060791
8109.375000	-117.937477
8132.812500	-119.601967
8156.250000	-119.002579
8179.687500	-118.552483
8203.125000	-119.562798
8226.562500	-121.595924
8250.000000	-120.771729
8273.437500	-120.397232
8296.875000	-120.886818
8320.312500	-116.171738
8343.750000	-115.542397
8367.187500	-115.830063
8390.625000	-118.326973
8414.062500	-119.622116
8437.500000	-115.372772
8460.937500	-114.611481
8484.375000	-116.750977
8507.812500	-116.526649
8531.250000	-114.931694
8554.687500	-115.917587
8578.125000	-116.676620
8601.562500	-118.919296
8625.000000	-120.056366
8648.437500	-120.048668
8671.875000	-121.824104
8695.312500	-123.220802
8718.750000	-122.001656
8742.187500	-121.679207
8765.625000	-123.278732
8789.062500	-122.685501
8812.500000	-122.365730
8835.937500	-120.787247
8859.375000	-120.812386
8882.812500	-120.229256
8906.250000	-121.479584
8929.687500	-123.129066
8953.125000	-124.293251
8976.562500	-123.042137
9000.000000	-118.040672
9023.437500	-115.672089
9046.875000	-114.806007
9070.312500	-112.526382
9093.750000	-113.943802
9117.187500	-117.188347
9140.625000	-120.954010
9164.062500	-124.211372
9187.500000	-122.370438
9210.937500	-120.017792
9234.375000	-118.709816
9257.812500	-121.004471
9281.250000	-121.862877
9304.687500	-122.478592
9328.125000	-124.438187
9351.562500	-123.088356
9375.000000	-119.222664
9398.437500	-120.483994
9421.875000	-122.543808
9445.312500	-122.759102
9468.750000	-124.127281
9492.187500	-123.524101
9515.625000	-123.629082
9539.062500	-125.060059
9562.500000	-124.156136
9585.937500	-121.458008
9609.375000	-121.772331
9632.812500	-123.318413
9656.250000	-123.723167
9679.687500	-123.476799
9703.125000	-124.226288
9726.562500	-124.594978
9750.000000	-125.111778
9773.437500	-124.312752
9796.875000	-124.673233
9820.312500	-125.108635
9843.750000	-124.571342
9867.187500	-124.070038
9890.625000	-124.146561
9914.062500	-123.525902
9937.500000	-122.546791
9960.937500	-124.320854
9984.375000	-124.175179
10007.812500	-123.030769
10031.250000	-123.178535
10054.687500	-124.990425
10078.125000	-125.232094
10101.562500	-124.966049
10125.000000	-124.502724
10148.437500	-123.758293
10171.875000	-125.293472
10195.312500	-126.098434
10218.750000	-125.722107
10242.187500	-126.514458
10265.625000	-126.622864
10289.062500	-125.763901
10312.500000	-125.377380
10335.937500	-125.546776
10359.375000	-124.786011
10382.812500	-118.659309
10406.250000	-114.814491
10429.687500	-112.899628
10453.125000	-112.006790
10476.562500	-118.449745
10500.000000	-124.311516
10523.437500	-125.636909
10546.875000	-126.691086
10570.312500	-126.760086
10593.750000	-126.939590
10617.187500	-127.038780
10640.625000	-126.546898
10664.062500	-125.801003
10687.500000	-125.643188
10710.937500	-126.181725
10734.375000	-126.058914
10757.812500	-125.684021
10781.250000	-124.429115
10804.687500	-124.987595
10828.125000	-125.895279
10851.562500	-127.223610
10875.000000	-127.220116
10898.437500	-126.579788
10921.875000	-126.253998
10945.312500	-126.193489
10968.750000	-126.266991
10992.187500	-127.112930
11015.625000	-126.421829
11039.062500	-124.814568
11062.500000	-124.959419
11085.937500	-126.773849
11109.375000	-126.895149
11132.812500	-126.294144
11156.250000	-126.564674
11179.687500	-127.300911
11203.125000	-126.878922
11226.562500	-126.055206
11250.000000	-126.561859
11273.437500	-127.084778
11296.875000	-126.966957
11320.312500	-126.101700
11343.750000	-125.787193
11367.187500	-125.766617
11390.625000	-127.091789
11414.062500	-126.961288
11437.500000	-124.697067
11460.937500	-124.984543
11484.375000	-127.055443
11507.812500	-127.454018
11531.250000	-127.735046
11554.687500	-127.947029
11578.125000	-127.388901
11601.562500	-126.560326
11625.000000	-126.919937
11648.437500	-127.531639
11671.875000	-127.276665
11695.312500	-126.343727
11718.750000	-123.253677
11742.187500	-123.013260
11765.625000	-124.148048
11789.062500	-123.525047
11812.500000	-124.756134
11835.937500	-124.840385
11859.375000	-126.944725
11882.812500	-127.784172
11906.250000	-128.089890
11929.687500	-128.123352
11953.125000	-128.135773
11976.562500	-128.108963
12000.000000	-127.407303
12023.437500	-126.904381
12046.875000	-126.826691
12070.312500	-127.617760
12093.750000	-127.781212
12117.187500	-128.013489
12140.625000	-128.017563
12164.062500	-127.614120
12187.500000	-127.735420
12210.937500	-127.772293
12234.375000	-128.057877
12257.812500	-127.791061
12281.250000	-127.692871
12304.687500	-127.531670
12328.125000	-127.849258
12351.562500	-128.133743
12375.000000	-127.571106
12398.437500	-127.839851
12421.875000	-128.056686
12445.312500	-128.275299
12468.750000	-128.485916
12492.187500	-128.455719
12515.625000	-128.248032
12539.062500	-128.194702
12562.500000	-128.216293
12585.937500	-128.209763
12609.375000	-128.149597
12632.812500	-128.219406
12656.250000	-128.348099
12679.687500	-128.383392
12703.125000	-128.245468
12726.562500	-128.390640
12750.000000	-128.378021
12773.437500	-127.964439
12796.875000	-127.733803
12820.312500	-126.943069
12843.750000	-127.582634
12867.187500	-128.347366
12890.625000	-128.540833
12914.062500	-128.509720
12937.500000	-128.439468
12960.937500	-128.356445
12984.375000	-128.212692
13007.812500	-127.971855
13031.250000	-127.804939
13054.687500	-128.047607
13078.125000	-128.352585
13101.562500	-128.387360
13125.000000	-128.364807
13148.437500	-128.301498
13171.875000	-128.332077
13195.312500	-128.168930
13218.750000	-127.843170
13242.187500	-127.531677
13265.625000	-127.378052
13289.062500	-127.723389
13312.500000	-127.667297
13335.937500	-126.800690
13359.375000	-127.089684
13382.812500	-127.374916
13406.250000	-128.005798
13429.687500	-128.370331
13453.125000	-128.524643
13476.562500	-128.527374
13500.000000	-128.365906
13523.437500	-128.467514
13546.875000	-128.606094
13570.312500	-128.554642
13593.750000	-128.364548
13617.187500	-127.992783
13640.625000	-128.179306
13664.062500	-128.438263
13687.500000	-128.321777
13710.937500	-128.410034
13734.375000	-128.528580
13757.812500	-128.527542
13781.250000	-128.669174
13804.687500	-128.621078
13828.125000	-128.596329
13851.562500	-128.505585
13875.000000	-128.549927
13898.437500	-128.583969
13921.875000	-128.624298
13945.312500	-128.673615
13968.750000	-128.423615
13992.187500	-128.428818
14015.625000	-128.196609
14039.062500	-127.596237
14062.500000	-127.392357
14085.937500	-128.046219
14109.375000	-128.315643
14132.812500	-128.559280
14156.250000	-128.583206
14179.687500	-128.544281
14203.125000	-128.508972
14226.562500	-128.623077
14250.000000	-128.674133
14273.437500	-128.687897
14296.875000	-128.699280
14320.312500	-128.669113
14343.750000	-128.601212
14367.187500	-128.474716
14390.625000	-128.555878
14414.062500	-128.595184
14437.500000	-128.488419
14460.937500	-128.611420
14484.375000	-128.631836
14507.812500	-128.710114
14531.250000	-128.709457
14554.687500	-128.727707
14578.125000	-128.734116
14601.562500	-128.747726
14625.000000	-128.684494
14648.437500	-128.601135
14671.875000	-128.713135
14695.312500	-128.652634
14718.750000	-128.501953
14742.187500	-128.298599
14765.625000	-127.970634
14789.062500	-128.165405
14812.500000	-128.059402
14835.937500	-128.503876
14859.375000	-128.673279
14882.812500	-128.635040
14906.250000	-128.647888
14929.687500	-128.686188
14953.125000	-128.579605
14976.562500	-128.599319
15000.000000	-128.588882
15023.437500	-128.635727
15046.875000	-128.665344
15070.312500	-128.735657
15093.750000	-128.740891
15117.187500	-128.664551
15140.625000	-128.652954
15164.062500	-128.661804
15187.500000	-128.364777
15210.937500	-128.279938
15234.375000	-128.525284
15257.812500	-128.721252
15281.250000	-128.740005
15304.687500	-128.741943
15328.125000	-128.766632
15351.562500	-128.667358
15375.000000	-128.642075
15398.437500	-128.720001
15421.875000	-128.698883
15445.312500	-128.634827
15468.750000	-128.547928
15492.187500	-128.617645
15515.625000	-128.660233
15539.062500	-128.659607
15562.500000	-128.646011
15585.937500	-128.663605
15609.375000	-128.676132
15632.812500	-128.633057
15656.250000	-128.641525
15679.687500	-128.580917
15703.125000	-128.594772
15726.562500	-128.493713
15750.000000	-128.554092
15773.437500	-128.611816
15796.875000	-128.605515
15820.312500	-128.664368
15843.750000	-128.683548
15867.187500	-128.551331
15890.625000	-128.452545
15914.062500	-128.555115
15937.500000	-128.599838
15960.937500	-128.597321
15984.375000	-128.597351
16007.812500	-128.556122
16031.250000	-128.532745
16054.687500	-128.642975
16078.125000	-128.588013
16101.562500	-128.554230
16125.000000	-128.674606
16148.437500	-128.732590
16171.875000	-128.714676
16195.312500	-128.598816
16218.750000	-128.634506
16242.187500	-128.667511
16265.625000	-128.657288
16289.062500	-128.596313
16312.500000	-128.588837
16335.937500	-128.621841
16359.375000	-128.641037
16382.812500	-128.594177
16406.250000	-128.591919
16429.687500	-128.576813
16453.125000	-128.624619
16476.562500	-128.577316
16500.000000	-128.535599
16523.437500	-128.613647
16546.875000	-128.675903
16570.312500	-128.684998
16593.750000	-128.667267
16617.187500	-128.644638
16640.625000	-128.673050
16664.062500	-128.689331
16687.500000	-128.683502
16710.937500	-128.635544
16734.375000	-128.620056
16757.812500	-128.682266
16781.250000	-128.622849
16804.687500	-128.620300
16828.125000	-128.595993
16851.562500	-128.552368
16875.000000	-128.570908
16898.437500	-128.634567
16921.875000	-128.703323
16945.312500	-128.740616
16968.750000	-128.680542
16992.187500	-128.649460
17015.625000	-128.646362
17039.062500	-128.623383
17062.500000	-128.570084
17085.937500	-128.613403
17109.375000	-128.607559
17132.812500	-128.627106
17156.250000	-128.615677
17179.687500	-128.620987
17203.125000	-128.566574
17226.562500	-128.623047
17250.000000	-128.693237
17273.437500	-128.660110
17296.875000	-128.614594
17320.312500	-128.669174
17343.750000	-128.646240
17367.187500	-128.692566
17390.625000	-128.672424
17414.062500	-128.632233
17437.500000	-128.623535
17460.937500	-128.606583
17484.375000	-128.596466
17507.812500	-128.610016
17531.250000	-128.614471
17554.687500	-128.608154
17578.125000	-128.646866
17601.562500	-128.652542
17625.000000	-128.566452
17648.437500	-128.607544
17671.875000	-128.574936
17695.312500	-128.588562
17718.750000	-128.649323
17742.187500	-128.641556
17765.625000	-128.621948
17789.062500	-128.587173
17812.500000	-128.636765
17835.937500	-128.639603
17859.375000	-128.589767
17882.812500	-128.594162
17906.250000	-128.545471
17929.687500	-128.593979
17953.125000	-128.619629
17976.562500	-128.564270
18000.000000	-128.433685
18023.437500	-128.483704
18046.875000	-128.620682
18070.312500	-128.531540
18093.750000	-128.559708
18117.187500	-128.647797
18140.625000	-128.601715
18164.062500	-128.635773
18187.500000	-128.656631
18210.937500	-128.577240
18234.375000	-128.593552
18257.812500	-128.544495
18281.250000	-128.566010
18304.687500	-128.576370
18328.125000	-128.580276
18351.562500	-128.576981
18375.000000	-128.509644
18398.437500	-128.506882
18421.875000	-128.632065
18445.312500	-128.594696
18468.750000	-128.562775
18492.187500	-128.599869
18515.625000	-128.622040
18539.062500	-128.651413
18562.500000	-128.674026
18585.937500	-128.605392
18609.375000	-128.632095
18632.812500	-128.656799
18656.250000	-128.668961
18679.687500	-128.598404
18703.125000	-128.536087
18726.562500	-128.573456
18750.000000	-128.573242
18773.437500	-128.553391
18796.875000	-128.567291
18820.312500	-128.599213
18843.750000	-128.592178
18867.187500	-128.603241
18890.625000	-128.601303
18914.062500	-128.623947
18937.500000	-128.625702
18960.937500	-128.562103
18984.375000	-128.568146
19007.812500	-128.650024
19031.250000	-128.521378
19054.687500	-128.479218
19078.125000	-128.519302
19101.562500	-128.419647
19125.000000	-128.411041
19148.437500	-128.294373
19171.875000	-128.254105
19195.312500	-128.342194
19218.750000	-128.361603
19242.187500	-128.283844
19265.625000	-127.902969
19289.062500	-128.197037
19312.500000	-128.456512
19335.937500	-128.411453
19359.375000	-128.477097
19382.812500	-128.515793
19406.250000	-128.549332
19429.687500	-128.553253
19453.125000	-128.580322
19476.562500	-128.564255
19500.000000	-128.471268
19523.437500	-128.461121
19546.875000	-128.491806
19570.312500	-128.531815
19593.750000	-128.487244
19617.187500	-128.465546
19640.625000	-128.513794
19664.062500	-128.528503
19687.500000	-128.496918
19710.937500	-128.479599
19734.375000	-128.500977
19757.812500	-128.559753
19781.250000	-128.542374
19804.687500	-128.512253
19828.125000	-128.492905
19851.562500	-128.480240
19875.000000	-128.505814
19898.437500	-128.521866
19921.875000	-128.592407
19945.312500	-128.456406
19968.750000	-128.375290
19992.187500	-128.496368
20015.625000	-128.487839
20039.062500	-128.533905
20062.500000	-128.555847
20085.937500	-128.536255
20109.375000	-128.480438
20132.812500	-128.196091
20156.250000	-128.437180
20179.687500	-128.464493
20203.125000	-128.500931
20226.562500	-128.531693
20250.000000	-128.517532
20273.437500	-128.538315
20296.875000	-128.510635
20320.312500	-128.514008
20343.750000	-128.537689
20367.187500	-128.504669
20390.625000	-128.506149
20414.062500	-128.514282
20437.500000	-128.579315
20460.937500	-128.613556
20484.375000	-128.544312
20507.812500	-128.478683
20531.250000	-128.562302
20554.687500	-128.531830
20578.125000	-128.552963
20601.562500	-128.574860
20625.000000	-128.599030
20648.437500	-128.572662
20671.875000	-128.528473
20695.312500	-128.485184
20718.750000	-128.484238
20742.187500	-128.443832
20765.625000	-128.456619
20789.062500	-128.528992
20812.500000	-128.475113
20835.937500	-128.509262
20859.375000	-128.446777
20882.812500	-128.469513
20906.250000	-128.541840
20929.687500	-128.508621
20953.125000	-128.480881
20976.562500	-128.448303
21000.000000	-128.445206
21023.437500	-128.498856
21046.875000	-128.473145
21070.312500	-128.506607
21093.750000	-128.475296
21117.187500	-128.480682
21140.625000	-128.425629
21164.062500	-128.474991
21187.500000	-128.465271
21210.937500	-128.461182
21234.375000	-128.529114
21257.812500	-128.489334
21281.250000	-128.476517
21304.687500	-128.412506
21328.125000	-128.466415
21351.562500	-128.528473
21375.000000	-128.521805
21398.437500	-128.506744
21421.875000	-128.481216
21445.312500	-128.455734
21468.750000	-128.425446
21492.187500	-128.474197
21515.625000	-128.495453
21539.062500	-128.543442
21562.500000	-128.466232
21585.937500	-128.444351
21609.375000	-128.399994
21632.812500	-128.392868
21656.250000	-128.453476
21679.687500	-128.393539
21703.125000	-128.425949
21726.562500	-128.408859
21750.000000	-128.430466
21773.437500	-128.411636
21796.875000	-128.387024
21820.312500	-128.482269
21843.750000	-128.468506
21867.187500	-128.407211
21890.625000	-128.410538
21914.062500	-128.510147
21937.500000	-128.520218
21960.937500	-128.476273
21984.375000	-128.471756
22007.812500	-128.435822
22031.250000	-128.396530
22054.687500	-128.406967
22078.125000	-128.472382
22101.562500	-128.480804
22125.000000	-128.400330
22148.437500	-128.378021
22171.875000	-128.398010
22195.312500	-128.385269
22218.750000	-128.416275
22242.187500	-128.403137
22265.625000	-128.452118
22289.062500	-128.430450
22312.500000	-128.407822
22335.937500	-128.428574
22359.375000	-128.435806
22382.812500	-128.425461
22406.250000	-128.374039
22429.687500	-128.405991
22453.125000	-128.378082
22476.562500	-128.413925
22500.000000	-128.467407
22523.437500	-128.429520
22546.875000	-128.392441
22570.312500	-128.360657
22593.750000	-128.409760
22617.187500	-128.341980
22640.625000	-128.313980
22664.062500	-128.387543
22687.500000	-128.374222
22710.937500	-128.312653
22734.375000	-128.310013
22757.812500	-128.383698
22781.250000	-128.480011
22804.687500	-128.409409
22828.125000	-128.331192
22851.562500	-128.305267
22875.000000	-128.295303
22898.437500	-128.365646
22921.875000	-128.425690
22945.312500	-128.431381
22968.750000	-128.457870
22992.187500	-128.373886
23015.625000	-128.320526
23039.062500	-128.356308
23062.500000	-128.399017
23085.937500	-128.405869
23109.375000	-128.374664
23132.812500	-128.421249
23156.250000	-128.455246
23179.687500	-128.382675
23203.125000	-128.384995
23226.562500	-128.446594
23250.000000	-128.428680
23273.437500	-128.384171
23296.875000	-128.375275
23320.312500	-128.382446
23343.750000	-128.362030
23367.187500	-128.385452
23390.625000	-128.420746
23414.062500	-128.427856
23437.500000	-128.364471
23460.937500	-128.342331
23484.375000	-128.394974
23507.812500	-128.382751
23531.250000	-128.342697
23554.687500	-128.420654
23578.125000	-128.416290
23601.562500	-128.363281
23625.000000	-128.386108
23648.437500	-128.395157
23671.875000	-128.364700
23695.312500	-128.417267
23718.750000	-128.401749
23742.187500	-128.373749
23765.625000	-128.348862
23789.062500	-128.399414
23812.500000	-128.345795
23835.937500	-128.309250
23859.375000	-128.307938
23882.812500	-128.351212
23906.250000	-128.417984
23929.687500	-128.368011
23953.125000	-128.323013
23976.562500	-128.408707
24000.000000	-128.356049
24023.437500	-128.301773
24046.875000	-128.350983
24070.312500	-128.315414
24093.750000	-128.316299
24117.187500	-128.366364
24140.625000	-128.372849
24164.062500	-128.314850
24187.500000	-128.341309
24210.937500	-128.337799
24234.375000	-128.347565
24257.812500	-128.333267
24281.250000	-128.270691
24304.687500	-128.306564
24328.125000	-128.355560
24351.562500	-128.360138
24375.000000	-128.380768
24398.437500	-128.267639
24421.875000	-128.306091
24445.312500	-128.280762
24468.750000	-128.255173
24492.187500	-128.289124
24515.625000	-128.307449
24539.062500	-128.390823
24562.500000	-128.389938
24585.937500	-128.321701
24609.375000	-128.321365
24632.812500	-128.307571
24656.250000	-128.295502
24679.687500	-128.332779
24703.125000	-128.293747
24726.562500	-128.326111
24750.000000	-128.346451
24773.437500	-128.346924
24796.875000	-128.305557
24820.312500	-128.325989
24843.750000	-128.333206
24867.187500	-128.273056
24890.625000	-128.290375
24914.062500	-128.333817
24937.500000	-128.321762
24960.937500	-128.315048
24984.375000	-128.352524
25007.812500	-128.362091
25031.250000	-128.361053
25054.687500	-128.335724
25078.125000	-128.264435
25101.562500	-128.311462
25125.000000	-128.356598
25148.437500	-128.367065
25171.875000	-128.260391
25195.312500	-128.271988
25218.750000	-128.366989
25242.187500	-128.312347
25265.625000	-128.263901
25289.062500	-128.287064
25312.500000	-128.336716
25335.937500	-128.320892
25359.375000	-128.256958
25382.812500	-128.266479
25406.250000	-128.289230
25429.687500	-128.330078
25453.125000	-128.343796
25476.562500	-128.348343
25500.000000	-128.343033
25523.437500	-128.296494
25546.875000	-128.283554
25570.312500	-128.308105
25593.750000	-128.308807
25617.187500	-128.345917
25640.625000	-128.351593
25664.062500	-128.283844
25687.500000	-128.286072
25710.937500	-128.333527
25734.375000	-128.349014
25757.812500	-128.280106
25781.250000	-128.261597
25804.687500	-128.221497
25828.125000	-128.165375
25851.562500	-128.200760
25875.000000	-128.263229
25898.437500	-128.316574
25921.875000	-128.279449
25945.312500	-128.277405
25968.750000	-128.333542
25992.187500	-128.285797
26015.625000	-128.322983
26039.062500	-128.287003
26062.500000	-128.233765
26085.937500	-128.315750
26109.375000	-128.340225
26132.812500	-128.305771
26156.250000	-128.287994
26179.687500	-128.308807
26203.125000	-128.305954
26226.562500	-128.236298
26250.000000	-128.322189
26273.437500	-128.312744
26296.875000	-128.244476
26320.312500	-128.252335
26343.750000	-128.196213
26367.187500	-128.224350
26390.625000	-128.235611
26414.062500	-128.268173
26437.500000	-128.299652
26460.937500	-128.289566
26484.375000	-128.287552
26507.812500	-128.261871
26531.250000	-128.232224
26554.687500	-128.215820
26578.125000	-128.252304
26601.562500	-128.283218
26625.000000	-128.230850
26648.437500	-128.242371
26671.875000	-128.241302
26695.312500	-128.231186
26718.750000	-128.298950
26742.187500	-128.319565
26765.625000	-128.315109
26789.062500	-128.313858
26812.500000	-128.304382
26835.937500	-128.364471
26859.375000	-128.318298
26882.812500	-128.269348
26906.250000	-128.257248
26929.687500	-128.290146
26953.125000	-128.283600
26976.562500	-128.229080
27000.000000	-128.234650
27023.437500	-128.269608
27046.875000	-128.234116
27070.312500	-128.221588
27093.750000	-128.210815
27117.187500	-128.171432
27140.625000	-128.274307
27164.062500	-128.278076
27187.500000	-128.308243
27210.937500	-128.293610
27234.375000	-128.239944
27257.812500	-128.210281
27281.250000	-128.194061
27304.687500	-128.182465
27328.125000	-128.209488
27351.562500	-128.266479
27375.000000	-128.293564
27398.437500	-128.221924
27421.875000	-128.248611
27445.312500	-128.252396
27468.750000	-128.258469
27492.187500	-128.249298
27515.625000	-128.304520
27539.062500	-128.231308
27562.500000	-128.210510
27585.937500	-128.248932
27609.375000	-128.263565
27632.812500	-128.201569
27656.250000	-128.199722
27679.687500	-128.287674
27703.125000	-128.262833
27726.562500	-128.229462
27750.000000	-128.265488
27773.437500	-128.242874
27796.875000	-128.248718
27820.312500	-128.329147
27843.750000	-128.317261
27867.187500	-128.218094
27890.625000	-128.182831
27914.062500	-128.186646
27937.500000	-128.214233
27960.937500	-128.211411
27984.375000	-128.221115
28007.812500	-128.169174
28031.250000	-128.143295
28054.687500	-128.121567
28078.125000	-128.151138
28101.562500	-128.166626
28125.000000	-128.181946
28148.437500	-128.136215
28171.875000	-128.137711
28195.312500	-128.210159
28218.750000	-128.274216
28242.187500	-128.257828
28265.625000	-128.195450
28289.062500	-128.169830
28312.500000	-128.178284
28335.937500	-128.264526
28359.375000	-128.236115
28382.812500	-128.209579
28406.250000	-128.239273
28429.687500	-128.197281
28453.125000	-128.187332
28476.562500	-128.135712
28500.000000	-128.206757
28523.437500	-128.290573
28546.875000	-128.263840
28570.312500	-128.164627
28593.750000	-128.131348
28617.187500	-128.215393
28640.625000	-128.236145
28664.062500	-128.222687
28687.500000	-128.159576
28710.937500	-128.205292
28734.375000	-128.202240
28757.812500	-128.213577
28781.250000	-128.280151
28804.687500	-128.199860
28828.125000	-128.242004
28851.562500	-128.220947
28875.000000	-128.212112
28898.437500	-128.224564
28921.875000	-128.154556
28945.312500	-128.108246
28968.750000	-128.138016
28992.187500	-128.214142
29015.625000	-128.279907
29039.062500	-128.229874
29062.500000	-128.164825
29085.937500	-128.262634
29109.375000	-128.320953
29132.812500	-128.246796
29156.250000	-128.183563
29179.687500	-128.220612
29203.125000	-128.231110
29226.562500	-128.128571
29250.000000	-128.074509
29273.437500	-128.197067
29296.875000	-128.265213
29320.312500	-128.236511
29343.750000	-128.221970
29367.187500	-128.174683
29390.625000	-128.231445
29414.062500	-128.173767
29437.500000	-128.148956
29460.937500	-128.172806
29484.375000	-128.146606
29507.812500	-128.117874
29531.250000	-128.150070
29554.687500	-128.130615
29578.125000	-128.121124
29601.562500	-128.151978
29625.000000	-128.144287
29648.437500	-128.132843
29671.875000	-128.110001
29695.312500	-128.237244
29718.750000	-128.224655
29742.187500	-128.157349
29765.625000	-128.162872
29789.062500	-128.181747
29812.500000	-128.207474
29835.937500	-128.225189
29859.375000	-128.218246
29882.812500	-128.149811
29906.250000	-128.157104
29929.687500	-128.149673
29953.125000	-128.127914
29976.562500	-128.171616
30000.000000	-128.158981
30023.437500	-128.202301
30046.875000	-128.190430
30070.312500	-128.197021
30093.750000	-128.219864
30117.187500	-128.205154
30140.625000	-128.177200
30164.062500	-128.147903
30187.500000	-128.194626
30210.937500	-128.180740
30234.375000	-128.235641
30257.812500	-128.261322
30281.250000	-128.157104
30304.687500	-128.161850
30328.125000	-128.158112
30351.562500	-128.137909
30375.000000	-128.129517
30398.437500	-128.203979
30421.875000	-128.156128
30445.312500	-128.119247
30468.750000	-128.115021
30492.187500	-128.152405
30515.625000	-128.164902
30539.062500	-128.094528
30562.500000	-128.125259
30585.937500	-128.165710
30609.375000	-128.123383
30632.812500	-128.140976
30656.250000	-128.150070
30679.687500	-128.201767
30703.125000	-128.218124
30726.562500	-128.215195
30750.000000	-128.188721
30773.437500	-128.169388
30796.875000	-128.154037
30820.312500	-128.115875
30843.750000	-128.123581
30867.187500	-128.152893
30890.625000	-128.210144
30914.062500	-128.205429
30937.500000	-128.157822
30960.937500	-128.151260
30984.375000	-128.153152
31007.812500	-128.159424
31031.250000	-128.151291
31054.687500	-128.164413
31078.125000	-128.150589
31101.562500	-128.133484
31125.000000	-128.152893
31148.437500	-128.083008
31171.875000	-128.100388
31195.312500	-128.154236
31218.750000	-128.210327
31242.187500	-128.166351
31265.625000	-128.156494
31289.062500	-128.189728
31312.500000	-128.187729
31335.937500	-128.138657
31359.375000	-128.148743
31382.812500	-128.177658
31406.250000	-128.149368
31429.687500	-128.123428
31453.125000	-128.077194
31476.562500	-128.157303
31500.000000	-128.178635
31523.437500	-128.134583
31546.875000	-128.102081
31570.312500	-128.118362
31593.750000	-128.123749
31617.187500	-128.109970
31640.625000	-128.092499
31664.062500	-128.109589
31687.500000	-128.141556
31710.937500	-128.116638
31734.375000	-128.149246
31757.812500	-128.261673
31781.250000	-128.178925
31804.687500	-128.196045
31828.125000	-128.195908
31851.562500	-128.186127
31875.000000	-128.193893
31898.437500	-128.197998
31921.875000	-128.164642
31945.312500	-128.121841
31968.750000	-128.129715
31992.187500	-128.115479
32015.625000	-128.159607
32039.062500	-128.103928
32062.500000	-128.083435
32085.937500	-128.126984
32109.375000	-128.133438
32132.812500	-128.094360
32156.250000	-128.148514
32179.687500	-128.109634
32203.125000	-128.130615
32226.562500	-128.153214
32250.000000	-128.118942
32273.437500	-128.184799
32296.875000	-128.179047
32320.312500	-128.136078
32343.750000	-128.122299
32367.187500	-128.192215
32390.625000	-128.092880
32414.062500	-128.151184
32437.500000	-128.169907
32460.937500	-128.158371
32484.375000	-128.077957
32507.812500	-128.081909
32531.250000	-128.081085
32554.687500	-128.109131
32578.125000	-128.186630
32601.562500	-128.239487
32625.000000	-128.099670
32648.437500	-128.095001
32671.875000	-128.097870
32695.312500	-128.087341
32718.750000	-128.160187
32742.187500	-128.146088
32765.625000	-128.115494
32789.062500	-128.089767
32812.500000	-128.124313
32835.937500	-128.149521
32859.375000	-128.125793
32882.812500	-128.119995
32906.250000	-128.229721
32929.687500	-128.199066
32953.125000	-128.076324
32976.562500	-128.072388
33000.000000	-128.113892
33023.437500	-128.078156
33046.875000	-128.085846
33070.312500	-128.116745
33093.750000	-128.114029
33117.187500	-128.171463
33140.625000	-128.163513
33164.062500	-128.161545
33187.500000	-128.127853
33210.937500	-128.122696
33234.375000	-128.118698
33257.812500	-128.084625
33281.250000	-128.116928
33304.687500	-128.129791
33328.125000	-128.087250
33351.562500	-128.104385
33375.000000	-128.114151
33398.437500	-128.113861
33421.875000	-128.038498
33445.312500	-128.164154
33468.750000	-128.136093
33492.187500	-128.100235
33515.625000	-128.061569
33539.062500	-128.107834
33562.500000	-128.135880
33585.937500	-128.135498
33609.375000	-128.099274
33632.812500	-128.036453
33656.250000	-128.072556
33679.687500	-128.125229
33703.125000	-128.173325
33726.562500	-128.138016
33750.000000	-128.092117
33773.437500	-128.109711
33796.875000	-128.097153
33820.312500	-128.050720
33843.750000	-128.073029
33867.187500	-128.141403
33890.625000	-128.126953
33914.062500	-128.058243
33937.500000	-128.056122
33960.937500	-128.036514
33984.375000	-128.058563
34007.812500	-128.036316
34031.250000	-128.066956
34054.687500	-128.102600
34078.125000	-128.112549
34101.562500	-128.115967
34125.000000	-128.113556
34148.437500	-128.085587
34171.875000	-128.088928
34195.312500	-128.106918
34218.750000	-128.067093
34242.187500	-128.111908
34265.625000	-128.112366
34289.062500	-128.070557
34312.500000	-128.115570
34335.937500	-128.093430
34359.375000	-128.076263
34382.812500	-128.054718
34406.250000	-128.047668
34429.687500	-128.000870
34453.125000	-128.059830
34476.562500	-128.130341
34500.000000	-128.094513
34523.437500	-128.126297
34546.875000	-128.076614
34570.312500	-128.069183
34593.750000	-128.103226
34617.187500	-127.997643
34640.625000	-128.020645
34664.062500	-128.131958
34687.500000	-128.116669
34710.937500	-128.105118
34734.375000	-128.106003
34757.812500	-128.070221
34781.250000	-128.034851
34804.687500	-127.981468
34828.125000	-127.899765
34851.562500	-127.922554
34875.000000	-127.992645
34898.437500	-128.046829
34921.875000	-128.096710
34945.312500	-128.104279
34968.750000	-128.057251
34992.187500	-128.123520
35015.625000	-128.120697
35039.062500	-128.121994
35062.500000	-127.997032
35085.937500	-128.047363
35109.375000	-128.123077
35132.812500	-128.033173
35156.250000	-128.040131
35179.687500	-128.122864
35203.125000	-128.124908
35226.562500	-128.109207
35250.000000	-128.005280
35273.437500	-127.985367
35296.875000	-128.030533
35320.312500	-128.106461
35343.750000	-128.000793
35367.187500	-127.948967
35390.625000	-127.979141
35414.062500	-128.039673
35437.500000	-128.087692
35460.937500	-128.089417
35484.375000	-128.104416
35507.812500	-128.087082
35531.250000	-128.082291
35554.687500	-128.072754
35578.125000	-128.078552
35601.562500	-128.106018
35625.000000	-128.078629
35648.437500	-128.094330
35671.875000	-128.056702
35695.312500	-128.075684
35718.750000	-128.140671
35742.187500	-128.119781
35765.625000	-128.065765
35789.062500	-128.000290
35812.500000	-127.968773
35835.937500	-127.997505
35859.375000	-128.038986
35882.812500	-127.969574
35906.250000	-127.984505
35929.687500	-128.024918
35953.125000	-128.045807
35976.562500	-128.087250
36000.000000	-128.032928
36023.437500	-128.029892
36046.875000	-127.985687
36070.312500	-128.069016
36093.750000	-128.076767
36117.187500	-128.040817
36140.625000	-128.053711
36164.062500	-128.062943
36187.500000	-128.010056
36210.937500	-127.996582
36234.375000	-128.021866
36257.812500	-128.018265
36281.250000	-128.067566
36304.687500	-128.064301
36328.125000	-128.094757
36351.562500	-128.066956
36375.000000	-128.006378
36398.437500	-128.034790
36421.875000	-128.075867
36445.312500	-128.090286
36468.750000	-128.110672
36492.187500	-128.064285
36515.625000	-127.959915
36539.062500	-128.008560
36562.500000	-128.104584
36585.937500	-128.066742
36609.375000	-127.957611
36632.812500	-127.979988
36656.250000	-127.958168
36679.687500	-127.941650
36703.125000	-127.965530
36726.562500	-127.981468
36750.000000	-128.017731
36773.437500	-128.029739
36796.875000	-128.034897
36820.312500	-127.999817
36843.750000	-128.009872
36867.187500	-127.986244
36890.625000	-128.003189
36914.062500	-128.000565
36937.500000	-128.056793
36960.937500	-128.045868
36984.375000	-128.010651
37007.812500	-128.063599
37031.250000	-128.039032
37054.687500	-128.029144
37078.125000	-128.092255
37101.562500	-128.031296
37125.000000	-128.066818
37148.437500	-128.052826
37171.875000	-128.045914
37195.312500	-128.051987
37218.750000	-128.061737
37242.187500	-127.989304
37265.625000	-127.999596
37289.062500	-128.023773
37312.500000	-128.024094
37335.937500	-128.028503
37359.375000	-128.032654
37382.812500	-127.997269
37406.250000	-127.961815
37429.687500	-128.016525
37453.125000	-128.023499
37476.562500	-128.037415
37500.000000	-128.042618
37523.437500	-127.988808
37546.875000	-127.975815
37570.312500	-127.965462
37593.750000	-127.993309
37617.187500	-128.030212
37640.625000	-127.998535
37664.062500	-128.046616
37687.500000	-127.989738
37710.937500	-127.989670
37734.375000	-128.032089
37757.812500	-128.035507
37781.250000	-128.027542
37804.687500	-128.003647
37828.125000	-127.985298
37851.562500	-127.970352
37875.000000	-127.989914
37898.437500	-128.024673
37921.875000	-127.981033
37945.312500	-128.036545
37968.750000	-128.086823
37992.187500	-128.019058
38015.625000	-127.987892
38039.062500	-127.998276
38062.500000	-127.987862
38085.937500	-128.008911
38109.375000	-127.989098
38132.812500	-127.957840
38156.250000	-128.015320
38179.687500	-128.022736
38203.125000	-128.011398
38226.562500	-127.982910
38250.000000	-127.950768
38273.437500	-127.905510
38296.875000	-127.952110
38320.312500	-127.976959
38343.750000	-127.979454
38367.187500	-127.943794
38390.625000	-127.910446
38414.062500	-128.021240
38437.500000	-128.021957
38460.937500	-127.962135
38484.375000	-127.999107
38507.812500	-127.982132
38531.250000	-127.954758
38554.687500	-127.920570
38578.125000	-127.941994
38601.562500	-128.049545
38625.000000	-128.081726
38648.437500	-127.958519
38671.875000	-127.948242
38695.312500	-127.885201
38718.750000	-127.949295
38742.187500	-128.006577
38765.625000	-127.936172
38789.062500	-127.983780
38812.500000	-128.091415
38835.937500	-127.991844
38859.375000	-127.878731
38882.812500	-127.918312
38906.250000	-127.938499
38929.687500	-127.944412
38953.125000	-128.007767
38976.562500	-128.024216
39000.000000	-127.982910
39023.437500	-127.974167
39046.875000	-127.994713
39070.312500	-127.994072
39093.750000	-128.051865
39117.187500	-128.040405
39140.625000	-127.950531
39164.062500	-127.925827
39187.500000	-127.894608
39210.937500	-127.888786
39234.375000	-127.865318
39257.812500	-127.931702
39281.250000	-128.043076
39304.687500	-128.042999
39328.125000	-127.922523
39351.562500	-127.979752
39375.000000	-128.087860
39398.437500	-128.028397
39421.875000	-128.067978
39445.312500	-128.062546
39468.750000	-127.961617
39492.187500	-127.945061
39515.625000	-127.965935
39539.062500	-128.073349
39562.500000	-127.977234
39585.937500	-127.914490
39609.375000	-127.952568
39632.812500	-127.964386
39656.250000	-127.988869
39679.687500	-127.967827
39703.125000	-127.983406
39726.562500	-128.028259
39750.000000	-127.949310
39773.437500	-127.895325
39796.875000	-127.955963
39820.312500	-127.989319
39843.750000	-127.998299
39867.187500	-127.986992
39890.625000	-127.916069
39914.062500	-127.853462
39937.500000	-127.928200
39960.937500	-127.969429
39984.375000	-127.890480
40007.812500	-127.914818
40031.250000	-128.013992
40054.687500	-128.070099
40078.125000	-127.943047
40101.562500	-127.897804
40125.000000	-127.929298
40148.437500	-127.893616
40171.875000	-128.005157
40195.312500	-128.113174
40218.750000	-127.997566
40242.187500	-127.935768
40265.625000	-127.875923
40289.062500	-127.920929
40312.500000	-127.902451
40335.937500	-127.935638
40359.375000	-128.014740
40382.812500	-128.040085
40406.250000	-127.997017
40429.687500	-127.926018
40453.125000	-127.867676
40476.562500	-127.921043
40500.000000	-127.936981
40523.437500	-128.012573
40546.875000	-127.969025
40570.312500	-127.953468
40593.750000	-128.013794
40617.187500	-127.937187
40640.625000	-127.986794
40664.062500	-128.064560
40687.500000	-128.030640
40710.937500	-127.979881
40734.375000	-127.933769
40757.812500	-127.952682
40781.250000	-127.954514
40804.687500	-127.998238
40828.125000	-128.013397
40851.562500	-127.979897
40875.000000	-127.951210
40898.437500	-127.956673
40921.875000	-127.983925
40945.312500	-128.043961
40968.750000	-128.029587
40992.187500	-127.916260
41015.625000	-127.963554
41039.062500	-128.071625
41062.500000	-128.010193
41085.937500	-127.976593
41109.375000	-128.010406
41132.812500	-128.005112
41156.250000	-128.040939
41179.687500	-128.043503
41203.125000	-128.036392
41226.562500	-128.029953
41250.000000	-128.029053
41273.437500	-128.062332
41296.875000	-128.058334
41320.312500	-128.013657
41343.750000	-128.031723
41367.187500	-128.075058
41390.625000	-128.027298
41414.062500	-127.940239
41437.500000	-128.000702
41460.937500	-128.028503
41484.375000	-128.062286
41507.812500	-128.061005
41531.250000	-128.090775
41554.687500	-128.053757
41578.125000	-128.068375
41601.562500	-128.041763
41625.000000	-128.020538
41648.437500	-128.057053
41671.875000	-128.090759
41695.312500	-128.090576
41718.750000	-128.107483
41742.187500	-128.132797
41765.625000	-128.114441
41789.062500	-128.081726
41812.500000	-128.075394
41835.937500	-128.033463
41859.375000	-128.090576
41882.812500	-128.069382
41906.250000	-128.061172
41929.687500	-128.109589
41953.125000	-128.130844
41976.562500	-128.096512
42000.000000	-128.079010
42023.437500	-128.037338
42046.875000	-128.042404
42070.312500	-128.123810
42093.750000	-128.124100
42117.187500	-128.092468
42140.625000	-128.043243
42164.062500	-128.141449
42187.500000	-128.173477
42210.937500	-128.166351
42234.375000	-128.176605
42257.812500	-128.205887
42281.250000	-128.223434
42304.687500	-128.213242
42328.125000	-128.164581
42351.562500	-128.226364
42375.000000	-128.220993
42398.437500	-128.200668
42421.875000	-128.230301
42445.312500	-128.244675
42468.750000	-128.223907
42492.187500	-128.223190
42515.625000	-128.183594
42539.062500	-128.157196
42562.500000	-128.179596
42585.937500	-128.233841
42609.375000	-128.165649
42632.812500	-128.209045
42656.250000	-128.237427
42679.687500	-128.247345
42703.125000	-128.233215
42726.562500	-128.314926
42750.000000	-128.310608
42773.437500	-128.284653
42796.875000	-128.271286
42820.312500	-128.276779
42843.750000	-128.304291
42867.187500	-128.275879
42890.625000	-128.263489
42914.062500	-128.307312
42937.500000	-128.344421
42960.937500	-128.352905
42984.375000	-128.393311
43007.812500	-128.376328
43031.250000	-128.376694
43054.687500	-128.347916
43078.125000	-128.398285
43101.562500	-128.458817
43125.000000	-128.405548
43148.437500	-128.394318
43171.875000	-128.409027
43195.312500	-128.402802
43218.750000	-128.396057
43242.187500	-128.401550
43265.625000	-128.470688
43289.062500	-128.456879
43312.500000	-128.474075
43335.937500	-128.453873
43359.375000	-128.442932
43382.812500	-128.461761
43406.250000	-128.425110
43429.687500	-128.506271
43453.125000	-128.492706
43476.562500	-128.602631
43500.000000	-128.556870
43523.437500	-128.472107
43546.875000	-128.516312
43570.312500	-128.503189
43593.750000	-128.493622
43617.187500	-128.561996
43640.625000	-128.594711
43664.062500	-128.584702
43687.500000	-128.568542
43710.937500	-128.592636
43734.375000	-128.527664
43757.812500	-128.531601
43781.250000	-128.604691
43804.687500	-128.625534
43828.125000	-128.595642
43851.562500	-128.596329
43875.000000	-128.654724
43898.437500	-128.663879
43921.875000	-128.672684
43945.312500	-128.681274
43968.750000	-128.681229
43992.187500	-128.727798
44015.625000	-128.681793
44039.062500	-128.730469
44062.500000	-128.749313
44085.937500	-128.815765
44109.375000	-128.825912
44132.812500	-128.814896
44156.250000	-128.798035
44179.687500	-128.846634
44203.125000	-128.800858
44226.562500	-128.808243
44250.000000	-128.875000
44273.437500	-128.816071
44296.875000	-128.882614
44320.312500	-128.901306
44343.750000	-128.854858
44367.187500	-128.805481
44390.625000	-128.867355
44414.062500	-128.916016
44437.500000	-128.942673
44460.937500	-128.917572
44484.375000	-128.979263
44507.812500	-129.017197
44531.250000	-129.031860
44554.687500	-129.032257
44578.125000	-129.078476
44601.562500	-129.038681
44625.000000	-129.046707
44648.437500	-129.070724
44671.875000	-129.083420
44695.312500	-129.110718
44718.750000	-129.080902
44742.187500	-129.111664
44765.625000	-129.096756
44789.062500	-129.121140
44812.500000	-129.082153
44835.937500	-129.168243
44859.375000	-129.215088
44882.812500	-129.228226
44906.250000	-129.213531
44929.687500	-129.238144
44953.125000	-129.324341
44976.562500	-129.228409
45000.000000	-129.261597
45023.437500	-129.263123
45046.875000	-129.241974
45070.312500	-129.331207
45093.750000	-129.345169
45117.187500	-129.387741
45140.625000	-129.377899
45164.062500	-129.291550
45187.500000	-129.311584
45210.937500	-129.396118
45234.375000	-129.425049
45257.812500	-129.416870
45281.250000	-129.427612
45304.687500	-129.390762
45328.125000	-129.383606
45351.562500	-129.368240
45375.000000	-129.430588
45398.437500	-129.472000
45421.875000	-129.537949
45445.312500	-129.493164
45468.750000	-129.497009
45492.187500	-129.495132
45515.625000	-129.501907
45539.062500	-129.513184
45562.500000	-129.593613
45585.937500	-129.646927
45609.375000	-129.627945
45632.812500	-129.632950
45656.250000	-129.685181
45679.687500	-129.722519
45703.125000	-129.746841
45726.562500	-129.723175
45750.000000	-129.697723
45773.437500	-129.695618
45796.875000	-129.704391
45820.312500	-129.758087
45843.750000	-129.763031
45867.187500	-129.783478
45890.625000	-129.780396
45914.062500	-129.787720
45937.500000	-129.846649
45960.937500	-129.878052
45984.375000	-129.880539
46007.812500	-129.834976
46031.250000	-129.823975
46054.687500	-129.827988
46078.125000	-129.888977
46101.562500	-129.951752
46125.000000	-129.956100
46148.437500	-129.862015
46171.875000	-129.910110
46195.312500	-129.977844
46218.750000	-129.979553
46242.187500	-130.034134
46265.625000	-130.018066
46289.062500	-130.053955
46312.500000	-130.047028
46335.937500	-130.139130
46359.375000	-130.125656
46382.812500	-130.143326
46406.250000	-130.117538
46429.687500	-130.073685
46453.125000	-130.109680
46476.562500	-130.130035
46500.000000	-130.173920
46523.437500	-130.160904
46546.875000	-130.178909
46570.312500	-130.197845
46593.750000	-130.161209
46617.187500	-130.211884
46640.625000	-130.294296
46664.062500	-130.316071
46687.500000	-130.218109
46710.937500	-130.229080
46734.375000	-130.321259
46757.812500	-130.314926
46781.250000	-130.259888
46804.687500	-130.255051
46828.125000	-130.255890
46851.562500	-130.363846
46875.000000	-130.338837
46898.437500	-130.404388
46921.875000	-130.369537
46945.312500	-130.338837
46968.750000	-130.393967
46992.187500	-130.397690
47015.625000	-130.439270
47039.062500	-130.449402
47062.500000	-130.391891
47085.937500	-130.384842
47109.375000	-130.437317
47132.812500	-130.437775
47156.250000	-130.451340
47179.687500	-130.407562
47203.125000	-130.451477
47226.562500	-130.477966
47250.000000	-130.498795
47273.437500	-130.521881
47296.875000	-130.511963
47320.312500	-130.490051
47343.750000	-130.534256
47367.187500	-130.571915
47390.625000	-130.524551
47414.062500	-130.528519
47437.500000	-130.559143
47460.937500	-130.553741
47484.375000	-130.498260
47507.812500	-130.494232
47531.250000	-130.502884
47554.687500	-130.492111
47578.125000	-130.458450
47601.562500	-130.547043
47625.000000	-130.593109
47648.437500	-130.628952
47671.875000	-130.621887
47695.312500	-130.593811
47718.750000	-130.575165
47742.187500	-130.592010
47765.625000	-130.604553
47789.062500	-130.587143
47812.500000	-130.615433
47835.937500	-130.623779
47859.375000	-130.608749
47882.812500	-130.574112
47906.250000	-130.568771
47929.687500	-130.604706
47953.125000	-130.661514
47976.562500	-130.658890
