주파수 (Hz)	레벨 (dB)
23.437500	-99.902473
46.875000	-85.202728
70.312500	-71.185188
93.750000	-64.677040
117.187500	-62.660709
140.625000	-60.292038
164.062500	-58.011345
187.500000	-53.995899
210.937500	-53.540627
234.375000	-53.660828
257.812500	-51.298683
281.250000	-53.274040
304.687500	-54.676662
328.125000	-54.190388
351.562500	-54.015652
375.000000	-50.834019
398.437500	-48.438965
421.875000	-52.392429
445.312500	-54.966892
468.750000	-52.671993
492.187500	-55.573601
515.625000	-51.558689
539.062500	-52.003510
562.500000	-55.660046
585.937500	-54.664066
609.375000	-55.223766
632.812500	-54.404114
656.250000	-50.550102
679.687500	-50.100319
703.125000	-48.235359
726.562500	-54.308140
750.000000	-66.086769
773.437500	-59.832939
796.875000	-58.157207
820.312500	-60.511017
843.750000	-61.125713
867.187500	-62.918198
890.625000	-61.765251
914.062500	-66.637978
937.500000	-66.464989
960.937500	-70.797646
984.375000	-67.554008
1007.812500	-68.705994
1031.250000	-63.483414
1054.687500	-59.628105
1078.125000	-65.586906
1101.562500	-72.444099
1125.000000	-74.118858
1148.437500	-72.805618
1171.875000	-62.617317
1195.312500	-63.146942
1218.750000	-71.279167
1242.187500	-63.831741
1265.625000	-64.274658
1289.062500	-72.753571
1312.500000	-70.563057
1335.937500	-70.612892
1359.375000	-73.129410
1382.812500	-66.541908
1406.250000	-63.307182
1429.687500	-68.099007
1453.125000	-73.652000
1476.562500	-71.899178
1500.000000	-74.298203
1523.437500	-77.381721
1546.875000	-74.225151
1570.312500	-67.491692
1593.750000	-68.192940
1617.187500	-76.982002
1640.625000	-76.714958
1664.062500	-70.727417
1687.500000	-70.651245
1710.937500	-77.608490
1734.375000	-79.429916
1757.812500	-72.678993
1781.250000	-70.484726
1804.687500	-76.876030
1828.125000	-79.300667
1851.562500	-73.945496
1875.000000	-70.333229
1898.437500	-71.743546
1921.875000	-79.744637
1945.312500	-81.114967
1968.750000	-74.558228
1992.187500	-72.004898
2015.625000	-76.084290
2039.062500	-84.448090
2062.500000	-80.241188
2085.937500	-75.634987
2109.375000	-71.403641
2132.812500	-73.594444
2156.250000	-82.853394
2179.687500	-82.053329
2203.125000	-79.945137
2226.562500	-78.829567
2250.000000	-77.738632
2273.437500	-83.196571
2296.875000	-87.013817
2320.312500	-84.722031
2343.750000	-82.189766
2367.187500	-74.657898
2390.625000	-73.463684
2414.062500	-82.153404
2437.500000	-87.426147
2460.937500	-86.119324
2484.375000	-82.213928
2507.812500	-78.097679
2531.250000	-76.004684
2554.687500	-83.045815
2578.125000	-87.317245
2601.562500	-84.253334
2625.000000	-86.674522
2648.437500	-82.792152
2671.875000	-79.154755
2695.312500	-81.731918
2718.750000	-87.701630
2742.187500	-87.221466
2765.625000	-84.547531
2789.062500	-81.184669
2812.500000	-78.318367
2835.937500	-74.419113
2859.375000	-78.108658
2882.812500	-86.670372
2906.250000	-90.675369
2929.687500	-86.647339
2953.125000	-80.243759
2976.562500	-79.190758
3000.000000	-77.482468
3023.437500	-79.398216
3046.875000	-88.502068
3070.312500	-88.987480
3093.750000	-84.161316
3117.187500	-84.614235
3140.625000	-84.190956
3164.062500	-82.983871
3187.500000	-78.299309
3210.937500	-79.977333
3234.375000	-86.453026
3257.812500	-94.781387
3281.250000	-92.940239
3304.687500	-91.188286
3328.125000	-89.426437
3351.562500	-88.208008
3375.000000	-87.961632
3398.437500	-88.814651
3421.875000	-89.725754
3445.312500	-93.679024
3468.750000	-94.612312
3492.187500	-89.799118
3515.625000	-92.030968
3539.062500	-91.582191
3562.500000	-88.742386
3585.937500	-88.408768
3609.375000	-87.916481
3632.812500	-88.847099
3656.250000	-91.564323
3679.687500	-96.433914
3703.125000	-96.353691
3726.562500	-99.827057
3750.000000	-90.414253
3773.437500	-85.380798
3796.875000	-88.197212
3820.312500	-89.849236
3843.750000	-89.502205
3867.187500	-92.498871
3890.625000	-99.552742
3914.062500	-104.183876
3937.500000	-100.432518
3960.937500	-96.483788
3984.375000	-89.182465
4007.812500	-88.156372
4031.250000	-94.397446
4054.687500	-94.144051
4078.125000	-91.278603
4101.562500	-92.850006
4125.000000	-98.346970
4148.437500	-100.498413
4171.875000	-100.613487
4195.312500	-96.032921
4218.750000	-91.707367
4242.187500	-87.102394
4265.625000	-87.572899
4289.062500	-88.469330
4312.500000	-88.811493
4335.937500	-86.742043
4359.375000	-88.882278
4382.812500	-96.968971
4406.250000	-102.484497
4429.687500	-101.395317
4453.125000	-99.914009
4476.562500	-94.535576
4500.000000	-94.516380
4523.437500	-98.312622
4546.875000	-97.915695
4570.312500	-99.609985
4593.750000	-97.386810
4617.187500	-97.811836
4640.625000	-98.443039
4664.062500	-97.786255
4687.500000	-96.100319
4710.937500	-98.675377
4734.375000	-95.703873
4757.812500	-92.661774
4781.250000	-95.206039
4804.687500	-102.609596
4828.125000	-102.368362
4851.562500	-98.440735
4875.000000	-96.018944
4898.437500	-96.984962
4921.875000	-93.724876
4945.312500	-93.195023
4968.750000	-97.303223
4992.187500	-99.876701
5015.625000	-106.822189
5039.062500	-98.329773
5062.500000	-90.116806
5085.937500	-92.430069
5109.375000	-102.523476
5132.812500	-97.668396
5156.250000	-95.326591
5179.687500	-97.974388
5203.125000	-101.523735
5226.562500	-100.504669
5250.000000	-100.825760
5273.437500	-103.618500
5296.875000	-107.515053
5320.312500	-105.588791
5343.750000	-103.005203
5367.187500	-100.884468
5390.625000	-102.028259
5414.062500	-102.315811
5437.500000	-100.749352
5460.937500	-101.791893
5484.375000	-101.134117
5507.812500	-103.238495
5531.250000	-104.079582
5554.687500	-100.243256
5578.125000	-100.639252
5601.562500	-105.199928
5625.000000	-106.547234
5648.437500	-110.710373
5671.875000	-108.897438
5695.312500	-104.854599
5718.750000	-101.046173
5742.187500	-103.519447
5765.625000	-105.962639
5789.062500	-107.078796
5812.500000	-101.093002
5835.937500	-93.956154
5859.375000	-94.940002
5882.812500	-101.232101
5906.250000	-104.976562
5929.687500	-105.639122
5953.125000	-102.155556
5976.562500	-101.694092
6000.000000	-108.560043
6023.437500	-110.959839
6046.875000	-110.654274
6070.312500	-105.506004
6093.750000	-103.746986
6117.187500	-107.850327
6140.625000	-109.315590
6164.062500	-100.857407
6187.500000	-98.185936
6210.937500	-103.298309
6234.375000	-109.797356
6257.812500	-107.161201
6281.250000	-102.097351
6304.687500	-103.190025
6328.125000	-106.258080
6351.562500	-107.590363
6375.000000	-103.538033
6398.437500	-105.391022
6421.875000	-110.209114
6445.312500	-110.960358
6468.750000	-107.147583
6492.187500	-105.793976
6515.625000	-106.442841
6539.062500	-107.812286
6562.500000	-104.907959
6585.937500	-100.263107
6609.375000	-98.991966
6632.812500	-102.663391
6656.250000	-107.536362
6679.687500	-103.665520
6703.125000	-105.561829
6726.562500	-106.391296
6750.000000	-103.860039
6773.437500	-103.739532
6796.875000	-107.791168
6820.312500	-105.754433
6843.750000	-110.244019
6867.187500	-116.473503
6890.625000	-112.121841
6914.062500	-111.996674
6937.500000	-115.510757
6960.937500	-113.970650
6984.375000	-110.968956
7007.812500	-109.149414
7031.250000	-106.029572
7054.687500	-108.778503
7078.125000	-116.889420
7101.562500	-117.654915
7125.000000	-112.131714
7148.437500	-109.394958
7171.875000	-112.926384
7195.312500	-114.357681
7218.750000	-114.704407
7242.187500	-116.882904
7265.625000	-115.205215
7289.062500	-116.718063
7312.500000	-118.552429
7335.937500	-115.533325
7359.375000	-114.378448
7382.812500	-108.522476
7406.250000	-106.433372
7429.687500	-111.720383
7453.125000	-112.977959
7476.562500	-105.633385
7500.000000	-102.025414
7523.437500	-101.627670
7546.875000	-105.448097
7570.312500	-113.258217
7593.750000	-114.296738
7617.187500	-114.440887
7640.625000	-114.468750
7664.062500	-112.175301
7687.500000	-109.951263
7710.937500	-112.529678
7734.375000	-113.889565
7757.812500	-114.172516
7781.250000	-113.583984
7804.687500	-113.592628
7828.125000	-111.135689
7851.562500	-106.441536
7875.000000	-108.006454
7898.437500	-116.002937
7921.875000	-116.828407
7945.312500	-116.887390
7968.750000	-117.195511
7992.187500	-116.546341
8015.625000	-116.584648
8039.062500	-118.646599
8062.500000	-117.037155
8085.937500	-116.613731
8109.375000	-116.894157
8132.812500	-118.412262
8156.250000	-117.608154
8179.687500	-116.436989
8203.125000	-117.912155
8226.562500	-119.605141
8250.000000	-115.622322
8273.437500	-114.861198
8296.875000	-117.383453
8320.312500	-114.027573
8343.750000	-113.223137
8367.187500	-114.111801
8390.625000	-117.306145
8414.062500	-119.733047
8437.500000	-116.853127
8460.937500	-116.578613
8484.375000	-118.795227
8507.812500	-114.372070
8531.250000	-111.916100
8554.687500	-112.056168
8578.125000	-114.658081
8601.562500	-118.905258
8625.000000	-120.763931
8648.437500	-120.736992
8671.875000	-121.090698
8695.312500	-121.770744
8718.750000	-120.495216
8742.187500	-118.481110
8765.625000	-118.352112
8789.062500	-117.345772
8812.500000	-118.051170
8835.937500	-119.088249
8859.375000	-121.056412
8882.812500	-119.978958
8906.250000	-122.015015
8929.687500	-123.564995
8953.125000	-123.415947
8976.562500	-121.871590
9000.000000	-119.617317
9023.437500	-119.228432
9046.875000	-116.058830
9070.312500	-110.908585
9093.750000	-110.323448
9117.187500	-113.993202
9140.625000	-117.973152
9164.062500	-122.498520
9187.500000	-123.166084
9210.937500	-122.239639
9234.375000	-120.550346
9257.812500	-121.302315
9281.250000	-121.843483
9304.687500	-121.715363
9328.125000	-124.212067
9351.562500	-120.928635
9375.000000	-116.350975
9398.437500	-116.216354
9421.875000	-117.426140
9445.312500	-117.041115
9468.750000	-119.881340
9492.187500	-119.373543
9515.625000	-119.136650
9539.062500	-122.671776
9562.500000	-122.080704
9585.937500	-120.168198
9609.375000	-119.271912
9632.812500	-121.069893
9656.250000	-123.074348
9679.687500	-124.368469
9703.125000	-123.711288
9726.562500	-124.271545
9750.000000	-125.218018
9773.437500	-124.896667
9796.875000	-124.830643
9820.312500	-124.750160
9843.750000	-123.238594
9867.187500	-121.779289
9890.625000	-122.649483
9914.062500	-122.787178
9937.500000	-122.175049
9960.937500	-123.491867
9984.375000	-123.953293
10007.812500	-122.870148
10031.250000	-121.737526
10054.687500	-122.313980
10078.125000	-123.041023
10101.562500	-122.958748
10125.000000	-122.388817
10148.437500	-121.781151
10171.875000	-123.756958
10195.312500	-124.703140
10218.750000	-124.976105
10242.187500	-125.776291
10265.625000	-125.402161
10289.062500	-123.976868
10312.500000	-122.889557
10335.937500	-123.498993
10359.375000	-122.591835
10382.812500	-117.834717
10406.250000	-116.806099
10429.687500	-116.953888
10453.125000	-114.456879
10476.562500	-117.868950
10500.000000	-121.489998
10523.437500	-122.020935
10546.875000	-123.087906
10570.312500	-123.924118
10593.750000	-125.064316
10617.187500	-126.045250
10640.625000	-125.757622
10664.062500	-125.547707
10687.500000	-124.966217
10710.937500	-122.247467
10734.375000	-120.645798
10757.812500	-122.545280
10781.250000	-121.621155
10804.687500	-124.262924
10828.125000	-125.309441
10851.562500	-126.101105
10875.000000	-126.658699
10898.437500	-125.996628
10921.875000	-125.284790
10945.312500	-125.445755
10968.750000	-125.884056
10992.187500	-125.964378
11015.625000	-124.679329
11039.062500	-124.581886
11062.500000	-125.480972
11085.937500	-125.489395
11109.375000	-125.089951
11132.812500	-125.352684
11156.250000	-126.514061
11179.687500	-126.420166
11203.125000	-125.288551
11226.562500	-124.733002
11250.000000	-126.070480
11273.437500	-127.147659
11296.875000	-127.547577
11320.312500	-126.525345
11343.750000	-125.859886
11367.187500	-125.990913
11390.625000	-126.294281
11414.062500	-126.045479
11437.500000	-125.074715
11460.937500	-123.077896
11484.375000	-122.832047
11507.812500	-124.919495
11531.250000	-126.657631
11554.687500	-127.147621
11578.125000	-126.923157
11601.562500	-125.823151
11625.000000	-125.936028
11648.437500	-125.902527
11671.875000	-125.803017
11695.312500	-125.529243
11718.750000	-125.138382
11742.187500	-124.316658
11765.625000	-123.684914
11789.062500	-123.537704
11812.500000	-124.644508
11835.937500	-124.691437
11859.375000	-126.083717
11882.812500	-126.845810
11906.250000	-127.357399
11929.687500	-127.465683
11953.125000	-127.271240
11976.562500	-126.910278
12000.000000	-125.005150
12023.437500	-123.729752
12046.875000	-123.851524
12070.312500	-126.485367
12093.750000	-127.625107
12117.187500	-127.902649
12140.625000	-127.756355
12164.062500	-127.310051
12187.500000	-126.663612
12210.937500	-125.864349
12234.375000	-126.503899
12257.812500	-126.859047
12281.250000	-126.845375
12304.687500	-127.152878
12328.125000	-127.309799
12351.562500	-127.074982
12375.000000	-126.087807
12398.437500	-126.340836
12421.875000	-127.149666
12445.312500	-127.518211
12468.750000	-127.784622
12492.187500	-127.703163
12515.625000	-127.627968
12539.062500	-127.653923
12562.500000	-127.814774
12585.937500	-127.820503
12609.375000	-127.200226
12632.812500	-126.775879
12656.250000	-126.418747
12679.687500	-127.091942
12703.125000	-127.615791
12726.562500	-127.613739
12750.000000	-127.542709
12773.437500	-127.148300
12796.875000	-127.391220
12820.312500	-126.980232
12843.750000	-126.865608
12867.187500	-127.567863
12890.625000	-127.883583
12914.062500	-128.000778
12937.500000	-128.167999
12960.937500	-128.004776
12984.375000	-127.622856
13007.812500	-126.464973
13031.250000	-125.760597
13054.687500	-126.950592
13078.125000	-127.663681
13101.562500	-127.731186
13125.000000	-127.558029
13148.437500	-127.529480
13171.875000	-127.285065
13195.312500	-126.322708
13218.750000	-125.829575
13242.187500	-126.319084
13265.625000	-125.409134
13289.062500	-124.614784
13312.500000	-126.381050
13335.937500	-127.138611
13359.375000	-126.741241
13382.812500	-126.400314
13406.250000	-126.875351
13429.687500	-127.188065
13453.125000	-127.420181
13476.562500	-127.606239
13500.000000	-127.627213
13523.437500	-127.802246
13546.875000	-128.013687
13570.312500	-128.055420
13593.750000	-128.016266
13617.187500	-127.415359
13640.625000	-127.445549
13664.062500	-127.444809
13687.500000	-127.311462
13710.937500	-127.750801
13734.375000	-127.796722
13757.812500	-127.908577
13781.250000	-128.095276
13804.687500	-128.006470
13828.125000	-128.038559
13851.562500	-128.062729
13875.000000	-128.095612
13898.437500	-128.153748
13921.875000	-128.143921
13945.312500	-128.194260
13968.750000	-128.089294
13992.187500	-128.155899
14015.625000	-127.952682
14039.062500	-127.693954
14062.500000	-127.984108
14085.937500	-128.037506
14109.375000	-128.064651
14132.812500	-128.028732
14156.250000	-128.182220
14179.687500	-128.215698
14203.125000	-128.120239
14226.562500	-128.179245
14250.000000	-128.165756
14273.437500	-128.244308
14296.875000	-128.315002
14320.312500	-128.326599
14343.750000	-128.274231
14367.187500	-127.996246
14390.625000	-128.039658
14414.062500	-128.251572
14437.500000	-128.213455
14460.937500	-128.310760
14484.375000	-128.441422
14507.812500	-128.448853
14531.250000	-128.185989
14554.687500	-128.201172
14578.125000	-128.410416
14601.562500	-128.405273
14625.000000	-128.439926
14648.437500	-128.209702
14671.875000	-128.096039
14695.312500	-128.058685
14718.750000	-127.612610
14742.187500	-127.582489
14765.625000	-128.002457
14789.062500	-128.178421
14812.500000	-128.035034
14835.937500	-127.849411
14859.375000	-127.958549
14882.812500	-128.151108
14906.250000	-128.437622
14929.687500	-128.519974
14953.125000	-128.369980
14976.562500	-128.288589
15000.000000	-128.319977
15023.437500	-128.146637
15046.875000	-128.144485
15070.312500	-128.395523
15093.750000	-128.374329
15117.187500	-128.238953
15140.625000	-127.917297
15164.062500	-127.827164
15187.500000	-127.536781
15210.937500	-127.716812
15234.375000	-128.239502
15257.812500	-128.374939
15281.250000	-128.329300
15304.687500	-128.428131
15328.125000	-128.441528
15351.562500	-128.499802
15375.000000	-128.419159
15398.437500	-128.422928
15421.875000	-128.393784
15445.312500	-128.328003
15468.750000	-128.295258
15492.187500	-128.390686
15515.625000	-128.477722
15539.062500	-128.523849
15562.500000	-128.415512
15585.937500	-128.379166
15609.375000	-128.395203
15632.812500	-128.312851
15656.250000	-128.319290
15679.687500	-128.287613
15703.125000	-128.248230
15726.562500	-128.134506
15750.000000	-128.272034
15773.437500	-128.302246
15796.875000	-128.309738
15820.312500	-128.501373
15843.750000	-128.531586
15867.187500	-128.445038
15890.625000	-128.293884
15914.062500	-128.317581
15937.500000	-128.373230
15960.937500	-128.226303
15984.375000	-128.315735
16007.812500	-128.368225
16031.250000	-128.207458
16054.687500	-128.318634
16078.125000	-128.385391
16101.562500	-128.384064
16125.000000	-128.438324
16148.437500	-128.436813
16171.875000	-128.417160
16195.312500	-128.320999
16218.750000	-128.437912
16242.187500	-128.552292
16265.625000	-128.430450
16289.062500	-128.383575
16312.500000	-128.398453
16335.937500	-128.533157
16359.375000	-128.302719
16382.812500	-128.028748
16406.250000	-128.164337
16429.687500	-128.486679
16453.125000	-128.468399
16476.562500	-128.404327
16500.000000	-128.285172
16523.437500	-128.452148
16546.875000	-128.438980
16570.312500	-128.458908
16593.750000	-128.485840
16617.187500	-128.455841
16640.625000	-128.492874
16664.062500	-128.523285
16687.500000	-128.559540
16710.937500	-128.567566
16734.375000	-128.522110
16757.812500	-128.515900
16781.250000	-128.473175
16804.687500	-128.432449
16828.125000	-128.459076
16851.562500	-128.413879
16875.000000	-128.497040
16898.437500	-128.589478
16921.875000	-128.592300
16945.312500	-128.533539
16968.750000	-128.497162
16992.187500	-128.533340
17015.625000	-128.544052
17039.062500	-128.589737
17062.500000	-128.570541
17085.937500	-128.536057
17109.375000	-128.563004
17132.812500	-128.543167
17156.250000	-128.477600
17179.687500	-128.470459
17203.125000	-128.462524
17226.562500	-128.346542
17250.000000	-128.418243
17273.437500	-128.521942
17296.875000	-128.523056
17320.312500	-128.448669
17343.750000	-128.509018
17367.187500	-128.605591
17390.625000	-128.499008
17414.062500	-128.523636
17437.500000	-128.521255
17460.937500	-128.495895
17484.375000	-128.480438
17507.812500	-128.448410
17531.250000	-128.598984
17554.687500	-128.475555
17578.125000	-128.445480
17601.562500	-128.556549
17625.000000	-128.461945
17648.437500	-128.547913
17671.875000	-128.544678
17695.312500	-128.615036
17718.750000	-128.558533
17742.187500	-128.473068
17765.625000	-128.458069
17789.062500	-128.445068
17812.500000	-128.464417
17835.937500	-128.476089
17859.375000	-128.466644
17882.812500	-128.504715
17906.250000	-128.466919
17929.687500	-128.500763
17953.125000	-128.320404
17976.562500	-128.016754
18000.000000	-127.792511
18023.437500	-128.260162
18046.875000	-128.515488
18070.312500	-128.505295
18093.750000	-128.485245
18117.187500	-128.626785
18140.625000	-128.591492
18164.062500	-128.556488
18187.500000	-128.597046
18210.937500	-128.490768
18234.375000	-128.483871
18257.812500	-128.517654
18281.250000	-128.584854
18304.687500	-128.509109
18328.125000	-128.534164
18351.562500	-128.555206
18375.000000	-128.598358
18398.437500	-128.597061
18421.875000	-128.595428
18445.312500	-128.571060
18468.750000	-128.522400
18492.187500	-128.556961
18515.625000	-128.599609
18539.062500	-128.573334
18562.500000	-128.527740
18585.937500	-128.513840
18609.375000	-128.545303
18632.812500	-128.547653
18656.250000	-128.525513
18679.687500	-128.546066
18703.125000	-128.501678
18726.562500	-128.480011
18750.000000	-128.470871
18773.437500	-128.446884
18796.875000	-128.518066
18820.312500	-128.508255
18843.750000	-128.556015
18867.187500	-128.568985
18890.625000	-128.572800
18914.062500	-128.546082
18937.500000	-128.547638
18960.937500	-128.583771
18984.375000	-128.469894
19007.812500	-128.423630
19031.250000	-128.441803
19054.687500	-128.340393
19078.125000	-128.135971
19101.562500	-127.822121
19125.000000	-127.407150
19148.437500	-126.477715
19171.875000	-125.285347
19195.312500	-123.733444
19218.750000	-123.497223
19242.187500	-125.033607
19265.625000	-126.329567
19289.062500	-126.348793
19312.500000	-126.245232
19335.937500	-126.463165
19359.375000	-126.573242
19382.812500	-127.148102
19406.250000	-127.555435
19429.687500	-127.768272
19453.125000	-127.902489
19476.562500	-128.049530
19500.000000	-127.796944
19523.437500	-128.207565
19546.875000	-128.284775
19570.312500	-128.198883
19593.750000	-128.357162
19617.187500	-128.302597
19640.625000	-128.283340
19664.062500	-128.322098
19687.500000	-128.375809
19710.937500	-128.438477
19734.375000	-128.495773
19757.812500	-128.450592
19781.250000	-128.384720
19804.687500	-128.428284
19828.125000	-128.441956
19851.562500	-128.498428
19875.000000	-128.605118
19898.437500	-128.511292
19921.875000	-128.540207
19945.312500	-128.570175
19968.750000	-128.538422
19992.187500	-128.488480
20015.625000	-128.518845
20039.062500	-128.543442
20062.500000	-128.514404
20085.937500	-128.480621
20109.375000	-128.198837
20132.812500	-127.350151
20156.250000	-128.160507
20179.687500	-128.474884
20203.125000	-128.469482
20226.562500	-128.513626
20250.000000	-128.548141
20273.437500	-128.528824
20296.875000	-128.461105
20320.312500	-128.441223
20343.750000	-128.473160
20367.187500	-128.510498
20390.625000	-128.513657
20414.062500	-128.530167
20437.500000	-128.520828
20460.937500	-128.512299
20484.375000	-128.518417
20507.812500	-128.457733
20531.250000	-128.536774
20554.687500	-128.544083
20578.125000	-128.537231
20601.562500	-128.481873
20625.000000	-128.491653
20648.437500	-128.554245
20671.875000	-128.566055
20695.312500	-128.431473
20718.750000	-128.454269
20742.187500	-128.514969
20765.625000	-128.478851
20789.062500	-128.525833
20812.500000	-128.422470
20835.937500	-128.424667
20859.375000	-128.496613
20882.812500	-128.475327
20906.250000	-128.421143
20929.687500	-128.455612
20953.125000	-128.512482
20976.562500	-128.398773
21000.000000	-128.148163
21023.437500	-128.396027
21046.875000	-128.394958
21070.312500	-128.385880
21093.750000	-128.318726
21117.187500	-128.393829
21140.625000	-128.402847
21164.062500	-128.345108
21187.500000	-128.496490
21210.937500	-128.487915
21234.375000	-128.473251
21257.812500	-128.494141
21281.250000	-128.485474
21304.687500	-128.552979
21328.125000	-128.584793
21351.562500	-128.572769
21375.000000	-128.533569
21398.437500	-128.429916
21421.875000	-128.435974
21445.312500	-128.454956
21468.750000	-128.515244
21492.187500	-128.437515
21515.625000	-128.412567
21539.062500	-128.503418
21562.500000	-128.513107
21585.937500	-128.527206
21609.375000	-128.504883
21632.812500	-128.512192
21656.250000	-128.527435
21679.687500	-128.522263
21703.125000	-128.492813
21726.562500	-128.505737
21750.000000	-128.503189
21773.437500	-128.509247
21796.875000	-128.513519
21820.312500	-128.472000
21843.750000	-128.498978
21867.187500	-128.536972
21890.625000	-128.482407
21914.062500	-128.490021
21937.500000	-128.498703
21960.937500	-128.469788
21984.375000	-128.492706
22007.812500	-128.506165
22031.250000	-128.485428
22054.687500	-128.480881
22078.125000	-128.565308
22101.562500	-128.527939
22125.000000	-128.491455
22148.437500	-128.463089
22171.875000	-128.391861
22195.312500	-128.405121
22218.750000	-128.429688
22242.187500	-128.382599
22265.625000	-128.387299
22289.062500	-128.318237
22312.500000	-128.411240
22335.937500	-128.468155
22359.375000	-128.326767
22382.812500	-128.396317
22406.250000	-128.424469
22429.687500	-128.412857
22453.125000	-128.402481
22476.562500	-128.265503
22500.000000	-128.227539
22523.437500	-128.419525
22546.875000	-128.403595
22570.312500	-128.369980
22593.750000	-128.364212
22617.187500	-128.383514
22640.625000	-128.415009
22664.062500	-128.359421
22687.500000	-128.270767
22710.937500	-128.265656
22734.375000	-128.359344
22757.812500	-128.248383
22781.250000	-128.390930
22804.687500	-128.327728
22828.125000	-128.315384
22851.562500	-128.334900
22875.000000	-128.311111
22898.437500	-128.325699
22921.875000	-128.333710
22945.312500	-128.350296
22968.750000	-128.371765
22992.187500	-128.338531
23015.625000	-128.376556
23039.062500	-128.357727
23062.500000	-128.387268
23085.937500	-128.398315
23109.375000	-128.446457
23132.812500	-128.445053
23156.250000	-128.367935
23179.687500	-128.513092
23203.125000	-128.460358
23226.562500	-128.409470
23250.000000	-128.495499
23273.437500	-128.468262
23296.875000	-128.453903
23320.312500	-128.409470
23343.750000	-128.416367
23367.187500	-128.401886
23390.625000	-128.400391
23414.062500	-128.442886
23437.500000	-128.353165
23460.937500	-128.312302
23484.375000	-128.380936
23507.812500	-128.308990
23531.250000	-128.279572
23554.687500	-128.277863
23578.125000	-128.264832
23601.562500	-128.300659
23625.000000	-128.221970
23648.437500	-128.185699
23671.875000	-128.288147
23695.312500	-128.341461
23718.750000	-128.333298
23742.187500	-128.345444
23765.625000	-128.385208
23789.062500	-128.400604
23812.500000	-128.409698
23835.937500	-128.400620
23859.375000	-128.388275
23882.812500	-128.401199
23906.250000	-128.409836
23929.687500	-128.413879
23953.125000	-128.321762
23976.562500	-128.368546
24000.000000	-128.360855
24023.437500	-128.358444
24046.875000	-128.388092
24070.312500	-128.458801
24093.750000	-128.440216
24117.187500	-128.410614
24140.625000	-128.452377
24164.062500	-128.460678
24187.500000	-128.455368
24210.937500	-128.353638
24234.375000	-128.380875
24257.812500	-128.487122
24281.250000	-128.427490
24304.687500	-128.366623
24328.125000	-128.422897
24351.562500	-128.296280
24375.000000	-128.428513
24398.437500	-128.501633
24421.875000	-128.474564
24445.312500	-128.459198
24468.750000	-128.400650
24492.187500	-128.442932
24515.625000	-128.392258
24539.062500	-128.403137
24562.500000	-128.423599
24585.937500	-128.371323
24609.375000	-128.402664
24632.812500	-128.401077
24656.250000	-128.412949
24679.687500	-128.313995
24703.125000	-128.276993
24726.562500	-128.369324
24750.000000	-128.297012
24773.437500	-128.339630
24796.875000	-128.326889
24820.312500	-128.338943
24843.750000	-128.375809
24867.187500	-128.358276
24890.625000	-128.364655
24914.062500	-128.384750
24937.500000	-128.426697
24960.937500	-128.364349
24984.375000	-128.329819
25007.812500	-128.371964
25031.250000	-128.356140
25054.687500	-128.335785
25078.125000	-128.341873
25101.562500	-128.338669
25125.000000	-128.367355
25148.437500	-128.366425
25171.875000	-128.350372
25195.312500	-128.425461
25218.750000	-128.379929
25242.187500	-128.353165
25265.625000	-128.420395
25289.062500	-128.406937
25312.500000	-128.363098
25335.937500	-128.345001
25359.375000	-128.385696
25382.812500	-128.352722
25406.250000	-128.364273
25429.687500	-128.426147
25453.125000	-128.380371
25476.562500	-128.401047
25500.000000	-128.412598
25523.437500	-128.440399
25546.875000	-128.406326
25570.312500	-128.424240
25593.750000	-128.394669
25617.187500	-128.369263
25640.625000	-128.380371
25664.062500	-128.427917
25687.500000	-128.422424
25710.937500	-128.347397
25734.375000	-128.298370
25757.812500	-128.382385
25781.250000	-128.404617
25804.687500	-128.402390
25828.125000	-128.389069
25851.562500	-128.394592
25875.000000	-128.367554
25898.437500	-128.269028
25921.875000	-128.290146
25945.312500	-128.266693
25968.750000	-128.410843
25992.187500	-128.394363
26015.625000	-128.285217
26039.062500	-128.343063
26062.500000	-128.363083
26085.937500	-128.358719
26109.375000	-128.372681
26132.812500	-128.379013
26156.250000	-128.337921
26179.687500	-128.345810
26203.125000	-128.387192
26226.562500	-128.379883
26250.000000	-128.412338
26273.437500	-128.437500
26296.875000	-128.328735
26320.312500	-128.290405
26343.750000	-128.175903
26367.187500	-128.299561
26390.625000	-128.352768
26414.062500	-128.291321
26437.500000	-128.390305
26460.937500	-128.360703
26484.375000	-128.365585
26507.812500	-128.365692
26531.250000	-128.314026
26554.687500	-128.299240
26578.125000	-128.323181
26601.562500	-128.307831
26625.000000	-128.284225
26648.437500	-128.392838
26671.875000	-128.428955
26695.312500	-128.338562
26718.750000	-128.300827
26742.187500	-128.282822
26765.625000	-128.320557
26789.062500	-128.355072
26812.500000	-128.326263
26835.937500	-128.348587
26859.375000	-128.420029
26882.812500	-128.400269
26906.250000	-128.417984
26929.687500	-128.393738
26953.125000	-128.354614
26976.562500	-128.287125
27000.000000	-128.270477
27023.437500	-128.239807
27046.875000	-128.288300
27070.312500	-128.324341
27093.750000	-128.286194
27117.187500	-128.342178
27140.625000	-128.404160
27164.062500	-128.424789
27187.500000	-128.337997
27210.937500	-128.316345
27234.375000	-128.290573
27257.812500	-128.332855
27281.250000	-128.315781
27304.687500	-128.361618
27328.125000	-128.407623
27351.562500	-128.366669
27375.000000	-128.321487
27398.437500	-128.287888
27421.875000	-128.294006
27445.312500	-128.323792
27468.750000	-128.365067
27492.187500	-128.312119
27515.625000	-128.290070
27539.062500	-128.224976
27562.500000	-128.294373
27585.937500	-128.263031
27609.375000	-128.212906
27632.812500	-128.284546
27656.250000	-128.317093
27679.687500	-128.337418
27703.125000	-128.300247
27726.562500	-128.291977
27750.000000	-128.350891
27773.437500	-128.359802
27796.875000	-128.311493
27820.312500	-128.296112
27843.750000	-128.328522
27867.187500	-128.321228
27890.625000	-128.221558
27914.062500	-128.241928
27937.500000	-128.096786
27960.937500	-128.228622
27984.375000	-128.250031
28007.812500	-128.234528
28031.250000	-128.288025
28054.687500	-128.268082
28078.125000	-128.280472
28101.562500	-128.239639
28125.000000	-128.236801
28148.437500	-128.287354
28171.875000	-128.310074
28195.312500	-128.269821
28218.750000	-128.346054
28242.187500	-128.319641
28265.625000	-128.244263
28289.062500	-128.232147
28312.500000	-128.288849
28335.937500	-128.285660
28359.375000	-128.221039
28382.812500	-128.284821
28406.250000	-128.333282
28429.687500	-128.306000
28453.125000	-128.302994
28476.562500	-128.291611
28500.000000	-128.263474
28523.437500	-128.246994
28546.875000	-128.316849
28570.312500	-128.305740
28593.750000	-128.325714
28617.187500	-128.348343
28640.625000	-128.308548
28664.062500	-128.280960
28687.500000	-128.385071
28710.937500	-128.342560
28734.375000	-128.292053
28757.812500	-128.330002
28781.250000	-128.275269
28804.687500	-128.227890
28828.125000	-128.252029
28851.562500	-128.269135
28875.000000	-128.328598
28898.437500	-128.298965
28921.875000	-128.250610
28945.312500	-128.276260
28968.750000	-128.296204
28992.187500	-128.261566
29015.625000	-128.271591
29039.062500	-128.325134
29062.500000	-128.267334
29085.937500	-128.256165
29109.375000	-128.286530
29132.812500	-128.188522
29156.250000	-128.217438
29179.687500	-128.283676
29203.125000	-128.268753
29226.562500	-128.311996
29250.000000	-128.320740
29273.437500	-128.283463
29296.875000	-128.304611
29320.312500	-128.354492
29343.750000	-128.302170
29367.187500	-128.263428
29390.625000	-128.282944
29414.062500	-128.276535
29437.500000	-128.233017
29460.937500	-128.224014
29484.375000	-128.197723
29507.812500	-128.272705
29531.250000	-128.208679
29554.687500	-128.176041
29578.125000	-128.216278
29601.562500	-128.235596
29625.000000	-128.229187
29648.437500	-128.225052
29671.875000	-128.238434
29695.312500	-128.200424
29718.750000	-128.230118
29742.187500	-128.291641
29765.625000	-128.243347
29789.062500	-128.217804
29812.500000	-128.271240
29835.937500	-128.307007
29859.375000	-128.222702
29882.812500	-128.211792
29906.250000	-128.233078
29929.687500	-128.242905
29953.125000	-128.309128
29976.562500	-128.234451
30000.000000	-128.127060
30023.437500	-128.259125
30046.875000	-128.280670
30070.312500	-128.272827
30093.750000	-128.304779
30117.187500	-128.341904
30140.625000	-128.349838
30164.062500	-128.372528
30187.500000	-128.334030
30210.937500	-128.304031
30234.375000	-128.272202
30257.812500	-128.263489
30281.250000	-128.293488
30304.687500	-128.279053
30328.125000	-128.286087
30351.562500	-128.336044
30375.000000	-128.279434
30398.437500	-128.290482
30421.875000	-128.270004
30445.312500	-128.203705
30468.750000	-128.242645
30492.187500	-128.267166
30515.625000	-128.272247
30539.062500	-128.299377
30562.500000	-128.288834
30585.937500	-128.310776
30609.375000	-128.289871
30632.812500	-128.284683
30656.250000	-128.347122
30679.687500	-128.297577
30703.125000	-128.265823
30726.562500	-128.247589
30750.000000	-128.161194
30773.437500	-128.256439
30796.875000	-128.239746
30820.312500	-128.215561
30843.750000	-128.203598
30867.187500	-128.240463
30890.625000	-128.215454
30914.062500	-128.234436
30937.500000	-128.201706
30960.937500	-128.250198
30984.375000	-128.243607
31007.812500	-128.272110
31031.250000	-128.321808
31054.687500	-128.216995
31078.125000	-128.158981
31101.562500	-128.167831
31125.000000	-128.095245
31148.437500	-128.093369
31171.875000	-128.232208
31195.312500	-128.209503
31218.750000	-128.198456
31242.187500	-128.202545
31265.625000	-128.187683
31289.062500	-128.175629
31312.500000	-128.113220
31335.937500	-128.169785
31359.375000	-128.201065
31382.812500	-128.174683
31406.250000	-128.183426
31429.687500	-128.183502
31453.125000	-128.137558
31476.562500	-127.966690
31500.000000	-127.942184
31523.437500	-128.060654
31546.875000	-128.015366
31570.312500	-128.092957
31593.750000	-128.063782
31617.187500	-128.061478
31640.625000	-128.062485
31664.062500	-128.139023
31687.500000	-128.100937
31710.937500	-128.126083
31734.375000	-128.177917
31757.812500	-128.260056
31781.250000	-128.235931
31804.687500	-128.250900
31828.125000	-128.275055
31851.562500	-128.232117
31875.000000	-128.203247
31898.437500	-128.199249
31921.875000	-128.231628
31945.312500	-128.247192
31968.750000	-128.296356
31992.187500	-128.202850
32015.625000	-128.177612
32039.062500	-128.304428
32062.500000	-128.341476
32085.937500	-128.298889
32109.375000	-128.249619
32132.812500	-128.247635
32156.250000	-128.258850
32179.687500	-128.256943
32203.125000	-128.240540
32226.562500	-128.219208
32250.000000	-128.279617
32273.437500	-128.284546
32296.875000	-128.265091
32320.312500	-128.228577
32343.750000	-128.189377
32367.187500	-128.233017
32390.625000	-128.229599
32414.062500	-128.199097
32437.500000	-128.141769
32460.937500	-128.203766
32484.375000	-128.237305
32507.812500	-128.242004
32531.250000	-128.221497
32554.687500	-128.289261
32578.125000	-128.360367
32601.562500	-128.311829
32625.000000	-128.214127
32648.437500	-128.215469
32671.875000	-128.184525
32695.312500	-128.177505
32718.750000	-128.206284
32742.187500	-128.214813
32765.625000	-128.232727
32789.062500	-128.139404
32812.500000	-128.158951
32835.937500	-128.180206
32859.375000	-128.255676
32882.812500	-128.241425
32906.250000	-128.152786
32929.687500	-128.212997
32953.125000	-128.264725
32976.562500	-128.166336
33000.000000	-128.085342
33023.437500	-128.173630
33046.875000	-128.229218
33070.312500	-128.222916
33093.750000	-128.191620
33117.187500	-128.171432
33140.625000	-128.129211
33164.062500	-128.231873
33187.500000	-128.225250
33210.937500	-128.175125
33234.375000	-128.178802
33257.812500	-128.213516
33281.250000	-128.105530
33304.687500	-128.131668
33328.125000	-128.138657
33351.562500	-128.155182
33375.000000	-128.180420
33398.437500	-128.246750
33421.875000	-128.212616
33445.312500	-128.200363
33468.750000	-128.176178
33492.187500	-128.091888
33515.625000	-128.106400
33539.062500	-128.153091
33562.500000	-128.181442
33585.937500	-128.213516
33609.375000	-128.266464
33632.812500	-128.269928
33656.250000	-128.271484
33679.687500	-128.237762
33703.125000	-128.246872
33726.562500	-128.231873
33750.000000	-128.164963
33773.437500	-128.212341
33796.875000	-128.264038
33820.312500	-128.251663
33843.750000	-128.223221
33867.187500	-128.209595
33890.625000	-128.172943
33914.062500	-128.095963
33937.500000	-128.139465
33960.937500	-128.206268
33984.375000	-128.165955
34007.812500	-128.119904
34031.250000	-128.141708
34054.687500	-128.275238
34078.125000	-128.237167
34101.562500	-128.184250
34125.000000	-128.234665
34148.437500	-128.188187
34171.875000	-128.228775
34195.312500	-128.173660
34218.750000	-128.133469
34242.187500	-128.264328
34265.625000	-128.170593
34289.062500	-128.171631
34312.500000	-128.210770
34335.937500	-128.185822
34359.375000	-128.197006
34382.812500	-128.184082
34406.250000	-128.197067
34429.687500	-128.210876
34453.125000	-128.155045
34476.562500	-128.132370
34500.000000	-128.136383
34523.437500	-128.202103
34546.875000	-128.235107
34570.312500	-128.188507
34593.750000	-128.150070
34617.187500	-128.133530
34640.625000	-128.194199
34664.062500	-128.147232
34687.500000	-128.180145
34710.937500	-128.197433
34734.375000	-128.067032
34757.812500	-128.103928
34781.250000	-128.126877
34804.687500	-128.164642
34828.125000	-128.216354
34851.562500	-128.169769
34875.000000	-128.142166
34898.437500	-128.176224
34921.875000	-128.209000
34945.312500	-128.185211
34968.750000	-128.127823
34992.187500	-128.083664
35015.625000	-128.111526
35039.062500	-128.101318
35062.500000	-128.115204
35085.937500	-128.186371
35109.375000	-128.200027
35132.812500	-128.201157
35156.250000	-128.167480
35179.687500	-128.097031
35203.125000	-128.090927
35226.562500	-128.049835
35250.000000	-128.098160
35273.437500	-128.076263
35296.875000	-128.034164
35320.312500	-128.012985
35343.750000	-128.015320
35367.187500	-128.028824
35390.625000	-128.112396
35414.062500	-128.077133
35437.500000	-128.065155
35460.937500	-128.076370
35484.375000	-128.124603
35507.812500	-128.101074
35531.250000	-127.974228
35554.687500	-127.935364
35578.125000	-127.936790
35601.562500	-127.981155
35625.000000	-128.062759
35648.437500	-128.144882
35671.875000	-128.096313
35695.312500	-128.128906
35718.750000	-128.146454
35742.187500	-128.094376
35765.625000	-128.061905
35789.062500	-128.119171
35812.500000	-128.083786
35835.937500	-128.111618
35859.375000	-128.133148
35882.812500	-128.140060
35906.250000	-128.104767
35929.687500	-128.041809
35953.125000	-128.060822
35976.562500	-128.062119
36000.000000	-128.153717
36023.437500	-128.181839
36046.875000	-128.141907
36070.312500	-128.153320
36093.750000	-128.151932
36117.187500	-128.166351
36140.625000	-128.146881
36164.062500	-128.092270
36187.500000	-128.180695
36210.937500	-128.175644
36234.375000	-128.207764
36257.812500	-128.157562
36281.250000	-128.075455
36304.687500	-128.094620
36328.125000	-128.044342
36351.562500	-128.123260
36375.000000	-128.197937
36398.437500	-128.187576
36421.875000	-128.214691
36445.312500	-128.148041
36468.750000	-128.185455
36492.187500	-128.151337
36515.625000	-128.163284
36539.062500	-128.186783
36562.500000	-128.176590
36585.937500	-128.107346
36609.375000	-128.117554
36632.812500	-128.121429
36656.250000	-128.045593
36679.687500	-128.083740
36703.125000	-128.178604
36726.562500	-128.082275
36750.000000	-128.147385
36773.437500	-128.125122
36796.875000	-128.161469
36820.312500	-128.094254
36843.750000	-128.073395
36867.187500	-128.034348
36890.625000	-128.044739
36914.062500	-128.141586
36937.500000	-128.126389
36960.937500	-128.100937
36984.375000	-128.096725
37007.812500	-128.153854
37031.250000	-128.226532
37054.687500	-128.187790
37078.125000	-128.152878
37101.562500	-128.140182
37125.000000	-128.153397
37148.437500	-128.161301
37171.875000	-128.091125
37195.312500	-128.039871
37218.750000	-128.070877
37242.187500	-128.125259
37265.625000	-128.154938
37289.062500	-128.120026
37312.500000	-128.099930
37335.937500	-128.048569
37359.375000	-128.064911
37382.812500	-128.058517
37406.250000	-128.054169
37429.687500	-128.049637
37453.125000	-128.039642
37476.562500	-128.004837
37500.000000	-128.031693
37523.437500	-128.021439
37546.875000	-128.041748
37570.312500	-128.017029
37593.750000	-128.021439
37617.187500	-128.056854
37640.625000	-128.058578
37664.062500	-127.999229
37687.500000	-128.006088
37710.937500	-128.019485
37734.375000	-128.132294
37757.812500	-128.088547
37781.250000	-128.081558
37804.687500	-128.064896
37828.125000	-128.001495
37851.562500	-128.029358
37875.000000	-128.011887
37898.437500	-127.984573
37921.875000	-127.922600
37945.312500	-128.044617
37968.750000	-127.955101
37992.187500	-128.022156
38015.625000	-128.057510
38039.062500	-128.101913
38062.500000	-128.085373
38085.937500	-128.011368
38109.375000	-127.980782
38132.812500	-127.987389
38156.250000	-127.983307
38179.687500	-127.962013
38203.125000	-127.935532
38226.562500	-127.928009
38250.000000	-127.875038
38273.437500	-127.678413
38296.875000	-127.569916
38320.312500	-127.342659
38343.750000	-127.178719
38367.187500	-127.269241
38390.625000	-127.321777
38414.062500	-127.514061
38437.500000	-127.547989
38460.937500	-127.524841
38484.375000	-127.526848
38507.812500	-127.366013
38531.250000	-127.470688
38554.687500	-127.635513
38578.125000	-127.700470
38601.562500	-127.720360
38625.000000	-127.699409
38648.437500	-127.803825
38671.875000	-127.875786
38695.312500	-127.819321
38718.750000	-127.819679
38742.187500	-127.894974
38765.625000	-127.989319
38789.062500	-127.930809
38812.500000	-127.898491
38835.937500	-127.893013
38859.375000	-127.912880
38882.812500	-127.926292
38906.250000	-127.882523
38929.687500	-127.857162
38953.125000	-127.911369
38976.562500	-127.941605
39000.000000	-127.904030
39023.437500	-128.021851
39046.875000	-128.011993
39070.312500	-128.010986
39093.750000	-128.063065
39117.187500	-127.977623
39140.625000	-128.042862
39164.062500	-128.003128
39187.500000	-127.932747
39210.937500	-127.980545
39234.375000	-128.019470
39257.812500	-128.078369
39281.250000	-128.007980
39304.687500	-128.054428
39328.125000	-128.049683
39351.562500	-127.993622
39375.000000	-128.066772
39398.437500	-128.024155
39421.875000	-128.065323
39445.312500	-128.058075
39468.750000	-128.013809
39492.187500	-128.063110
39515.625000	-127.972565
39539.062500	-128.029327
39562.500000	-128.022278
39585.937500	-127.975594
39609.375000	-127.966507
39632.812500	-128.006409
39656.250000	-127.925995
39679.687500	-127.919083
39703.125000	-128.017120
39726.562500	-128.050522
39750.000000	-128.009659
39773.437500	-128.016861
39796.875000	-127.944283
39820.312500	-128.006012
39843.750000	-127.979340
39867.187500	-127.976166
39890.625000	-127.989433
39914.062500	-127.992752
39937.500000	-128.028076
39960.937500	-128.045334
39984.375000	-128.008682
40007.812500	-128.036560
40031.250000	-128.062943
40054.687500	-128.041122
40078.125000	-128.011597
40101.562500	-128.032623
40125.000000	-128.090195
40148.437500	-128.008682
40171.875000	-128.025711
40195.312500	-128.046570
40218.750000	-128.069458
40242.187500	-128.049225
40265.625000	-127.638405
40289.062500	-127.890366
40312.500000	-128.113907
40335.937500	-128.083313
40359.375000	-128.058197
40382.812500	-128.066849
40406.250000	-128.094131
40429.687500	-128.067749
40453.125000	-127.999771
40476.562500	-127.963867
40500.000000	-127.827026
40523.437500	-127.995354
40546.875000	-128.099564
40570.312500	-128.065216
40593.750000	-128.092896
40617.187500	-128.032303
40640.625000	-128.076035
40664.062500	-128.035919
40687.500000	-128.038330
40710.937500	-128.050308
40734.375000	-128.028351
40757.812500	-128.087906
40781.250000	-128.019806
40804.687500	-128.031876
40828.125000	-128.067734
40851.562500	-128.075607
40875.000000	-128.066895
40898.437500	-128.008652
40921.875000	-128.033798
40945.312500	-128.055359
40968.750000	-128.024445
40992.187500	-128.064819
41015.625000	-128.150208
41039.062500	-128.133514
41062.500000	-128.101593
41085.937500	-128.092926
41109.375000	-128.041595
41132.812500	-128.056000
41156.250000	-128.057770
41179.687500	-127.972870
41203.125000	-128.004990
41226.562500	-128.053802
41250.000000	-128.104248
41273.437500	-128.067444
41296.875000	-128.074463
41320.312500	-128.102081
41343.750000	-128.061813
41367.187500	-128.104630
41390.625000	-128.144058
41414.062500	-128.104324
41437.500000	-128.051270
41460.937500	-128.056000
41484.375000	-128.111526
41507.812500	-128.066742
41531.250000	-128.082657
41554.687500	-128.133484
41578.125000	-128.151382
41601.562500	-128.153351
41625.000000	-128.081711
41648.437500	-128.128433
41671.875000	-128.152908
41695.312500	-128.127563
41718.750000	-128.087936
41742.187500	-128.023270
41765.625000	-128.073746
41789.062500	-128.123062
41812.500000	-128.159912
41835.937500	-128.101883
41859.375000	-128.093277
41882.812500	-128.161652
41906.250000	-128.183365
41929.687500	-128.162231
41953.125000	-128.121750
41976.562500	-128.072571
42000.000000	-127.941597
42023.437500	-128.108627
42046.875000	-128.198959
42070.312500	-128.143631
42093.750000	-128.105240
42117.187500	-128.090988
42140.625000	-128.105606
42164.062500	-128.181122
42187.500000	-128.157120
42210.937500	-128.071426
42234.375000	-128.139542
42257.812500	-128.178024
42281.250000	-128.173019
42304.687500	-128.217621
42328.125000	-128.263519
42351.562500	-128.235931
42375.000000	-128.271423
42398.437500	-128.280350
42421.875000	-128.257278
42445.312500	-128.279526
42468.750000	-128.262695
42492.187500	-128.225067
42515.625000	-128.278595
42539.062500	-128.301498
42562.500000	-128.300491
42585.937500	-128.315994
42609.375000	-128.300369
42632.812500	-128.230637
42656.250000	-128.218704
42679.687500	-128.279953
42703.125000	-128.247528
42726.562500	-128.220825
42750.000000	-128.300476
42773.437500	-128.308914
42796.875000	-128.344131
42820.312500	-128.380569
42843.750000	-128.345001
42867.187500	-128.373199
42890.625000	-128.373245
42914.062500	-128.420029
42937.500000	-128.368683
42960.937500	-128.442474
42984.375000	-128.397247
43007.812500	-128.366745
43031.250000	-128.416351
43054.687500	-128.373749
43078.125000	-128.378128
43101.562500	-128.376740
43125.000000	-128.349686
43148.437500	-128.444107
43171.875000	-128.507721
43195.312500	-128.489655
43218.750000	-128.526535
43242.187500	-128.524979
43265.625000	-128.450485
43289.062500	-128.457062
43312.500000	-128.560974
43335.937500	-128.536285
43359.375000	-128.436462
43382.812500	-128.493134
43406.250000	-128.548737
43429.687500	-128.585526
43453.125000	-128.559479
43476.562500	-128.524826
43500.000000	-128.411407
43523.437500	-128.509842
43546.875000	-128.554276
43570.312500	-128.548187
43593.750000	-128.582581
43617.187500	-128.613968
43640.625000	-128.652557
43664.062500	-128.624817
43687.500000	-128.673904
43710.937500	-128.675873
43734.375000	-128.602936
43757.812500	-128.692032
43781.250000	-128.713699
43804.687500	-128.642883
43828.125000	-128.634811
43851.562500	-128.695877
43875.000000	-128.802322
43898.437500	-128.744507
43921.875000	-128.724808
43945.312500	-128.844482
43968.750000	-128.825333
43992.187500	-128.796570
44015.625000	-128.768906
44039.062500	-128.743805
44062.500000	-128.750198
44085.937500	-128.782547
44109.375000	-128.809296
44132.812500	-128.809753
44156.250000	-128.866776
44179.687500	-128.827850
44203.125000	-128.879791
44226.562500	-128.889145
44250.000000	-128.899704
44273.437500	-128.906250
44296.875000	-128.882339
44320.312500	-128.974609
44343.750000	-128.974777
44367.187500	-128.925919
44390.625000	-128.958954
44414.062500	-128.964844
44437.500000	-128.947632
44460.937500	-129.009857
44484.375000	-128.998428
44507.812500	-129.041122
44531.250000	-129.010208
44554.687500	-129.011536
44578.125000	-129.038208
44601.562500	-129.057678
44625.000000	-129.110657
44648.437500	-129.109802
44671.875000	-129.078690
44695.312500	-129.065186
44718.750000	-129.085052
44742.187500	-129.136292
44765.625000	-129.115082
44789.062500	-129.128098
44812.500000	-129.231110
44835.937500	-129.233887
44859.375000	-129.202042
44882.812500	-129.204041
44906.250000	-129.264313
44929.687500	-129.203674
44953.125000	-129.188431
44976.562500	-129.212265
45000.000000	-129.158707
45023.437500	-129.275513
45046.875000	-129.312698
45070.312500	-129.325027
45093.750000	-129.363388
45117.187500	-129.425812
45140.625000	-129.374405
45164.062500	-129.361252
45187.500000	-129.460297
45210.937500	-129.495575
45234.375000	-129.411102
45257.812500	-129.353638
45281.250000	-129.345215
45304.687500	-129.476227
45328.125000	-129.520584
45351.562500	-129.580383
45375.000000	-129.577835
45398.437500	-129.541840
45421.875000	-129.565735
45445.312500	-129.607300
45468.750000	-129.614960
45492.187500	-129.639465
45515.625000	-129.714432
45539.062500	-129.779938
45562.500000	-129.711121
45585.937500	-129.636688
45609.375000	-129.640167
45632.812500	-129.665176
45656.250000	-129.698669
45679.687500	-129.684921
45703.125000	-129.744492
45726.562500	-129.745010
45750.000000	-129.765091
45773.437500	-129.774170
45796.875000	-129.782791
45820.312500	-129.766174
45843.750000	-129.810211
45867.187500	-129.869308
45890.625000	-129.827179
45914.062500	-129.830231
45937.500000	-129.871078
45960.937500	-129.875168
45984.375000	-129.852341
46007.812500	-129.949234
46031.250000	-129.943649
46054.687500	-129.878784
46078.125000	-129.923004
46101.562500	-130.055191
46125.000000	-130.063477
46148.437500	-129.995239
46171.875000	-130.079422
46195.312500	-130.134323
46218.750000	-130.111893
46242.187500	-130.034012
46265.625000	-129.977890
46289.062500	-130.078308
46312.500000	-130.046814
46335.937500	-130.103745
46359.375000	-130.127304
46382.812500	-130.168442
46406.250000	-130.171982
46429.687500	-130.210953
46453.125000	-130.158325
46476.562500	-130.122772
46500.000000	-130.085632
46523.437500	-130.226105
46546.875000	-130.243484
46570.312500	-130.244446
46593.750000	-130.248260
46617.187500	-130.243195
46640.625000	-130.302002
46664.062500	-130.296097
46687.500000	-130.373367
46710.937500	-130.335098
46734.375000	-130.292862
46757.812500	-130.276367
46781.250000	-130.337357
46804.687500	-130.433395
46828.125000	-130.469101
46851.562500	-130.395370
46875.000000	-130.362640
46898.437500	-130.359283
46921.875000	-130.337708
46945.312500	-130.375931
46968.750000	-130.372009
46992.187500	-130.349014
47015.625000	-130.375031
47039.062500	-130.427551
47062.500000	-130.430099
47085.937500	-130.431122
47109.375000	-130.459183
47132.812500	-130.403824
47156.250000	-130.439529
47179.687500	-130.496887
47203.125000	-130.482849
47226.562500	-130.576981
47250.000000	-130.584885
47273.437500	-130.637650
47296.875000	-130.622116
47320.312500	-130.524826
47343.750000	-130.555603
47367.187500	-130.552338
47390.625000	-130.573059
47414.062500	-130.620544
47437.500000	-130.595322
47460.937500	-130.595184
47484.375000	-130.523270
47507.812500	-130.532623
47531.250000	-130.626419
47554.687500	-130.531754
47578.125000	-130.583969
47601.562500	-130.673080
47625.000000	-130.692413
47648.437500	-130.671066
47671.875000	-130.608673
47695.312500	-130.582214
47718.750000	-130.619446
47742.187500	-130.659317
47765.625000	-130.750061
47789.062500	-130.786896
47812.500000	-130.708115
47835.937500	-130.619583
47859.375000	-130.598404
47882.812500	-130.618317
47906.250000	-130.643997
47929.687500	-130.633942
47953.125000	-130.617188
47976.562500	-130.677444
