주파수 (Hz)	레벨 (dB)
23.437500	-95.086197
46.875000	-80.154839
70.312500	-67.951965
93.750000	-59.678101
117.187500	-56.511074
140.625000	-52.324898
164.062500	-51.021744
187.500000	-49.007160
210.937500	-48.912884
234.375000	-48.953785
257.812500	-47.519035
281.250000	-47.871639
304.687500	-48.364895
328.125000	-47.527977
351.562500	-48.140747
375.000000	-45.285580
398.437500	-43.220993
421.875000	-47.741302
445.312500	-48.158409
468.750000	-46.403328
492.187500	-47.367058
515.625000	-46.034000
539.062500	-47.389847
562.500000	-52.359795
585.937500	-48.976437
609.375000	-49.601658
632.812500	-49.507545
656.250000	-46.887585
679.687500	-46.942539
703.125000	-45.486469
726.562500	-51.231895
750.000000	-58.218761
773.437500	-55.164768
796.875000	-53.888023
820.312500	-52.239021
843.750000	-51.693150
867.187500	-55.778622
890.625000	-55.282314
914.062500	-61.634003
937.500000	-62.303719
960.937500	-66.669662
984.375000	-63.137974
1007.812500	-64.107742
1031.250000	-62.180561
1054.687500	-58.301540
1078.125000	-63.380039
1101.562500	-64.621864
1125.000000	-67.752533
1148.437500	-66.962143
1171.875000	-55.194382
1195.312500	-55.007084
1218.750000	-64.829475
1242.187500	-59.673557
1265.625000	-60.027550
1289.062500	-67.952286
1312.500000	-64.803070
1335.937500	-64.871849
1359.375000	-67.893410
1382.812500	-62.675907
1406.250000	-60.332546
1429.687500	-65.277954
1453.125000	-70.503525
1476.562500	-65.171951
1500.000000	-65.178101
1523.437500	-70.737595
1546.875000	-67.375710
1570.312500	-61.304092
1593.750000	-61.433025
1617.187500	-70.925987
1640.625000	-69.783325
1664.062500	-62.430454
1687.500000	-63.787346
1710.937500	-73.114143
1734.375000	-73.441879
1757.812500	-65.863998
1781.250000	-63.227245
1804.687500	-69.348503
1828.125000	-73.047287
1851.562500	-68.216148
1875.000000	-65.406395
1898.437500	-67.027367
1921.875000	-73.640610
1945.312500	-73.027046
1968.750000	-68.919006
1992.187500	-66.793877
2015.625000	-71.073059
2039.062500	-79.342140
2062.500000	-74.993507
2085.937500	-70.590889
2109.375000	-66.726730
2132.812500	-68.223106
2156.250000	-77.835129
2179.687500	-77.135391
2203.125000	-72.935394
2226.562500	-70.624939
2250.000000	-71.340569
2273.437500	-77.609009
2296.875000	-81.529320
2320.312500	-77.148247
2343.750000	-74.166969
2367.187500	-67.584679
2390.625000	-66.206131
2414.062500	-74.113609
2437.500000	-76.908142
2460.937500	-77.722847
2484.375000	-74.023682
2507.812500	-68.565536
2531.250000	-67.284599
2554.687500	-75.531021
2578.125000	-81.414474
2601.562500	-79.208328
2625.000000	-78.303116
2648.437500	-75.025200
2671.875000	-72.101212
2695.312500	-73.744278
2718.750000	-80.135872
2742.187500	-80.772728
2765.625000	-77.128906
2789.062500	-74.893578
2812.500000	-75.101700
2835.937500	-71.743393
2859.375000	-73.623932
2882.812500	-78.930199
2906.250000	-84.043121
2929.687500	-82.573723
2953.125000	-75.796539
2976.562500	-73.145470
3000.000000	-69.630547
3023.437500	-71.965836
3046.875000	-80.309883
3070.312500	-85.127304
3093.750000	-79.024055
3117.187500	-77.985832
3140.625000	-74.972832
3164.062500	-77.002945
3187.500000	-75.122711
3210.937500	-74.649574
3234.375000	-79.484673
3257.812500	-87.924263
3281.250000	-84.813805
3304.687500	-82.262436
3328.125000	-81.883224
3351.562500	-80.803551
3375.000000	-74.786400
3398.437500	-76.211075
3421.875000	-83.782738
3445.312500	-87.772041
3468.750000	-89.813515
3492.187500	-87.078911
3515.625000	-86.146294
3539.062500	-83.171890
3562.500000	-84.097336
3585.937500	-82.601067
3609.375000	-79.986664
3632.812500	-80.761940
3656.250000	-85.768890
3679.687500	-90.272583
3703.125000	-89.629562
3726.562500	-89.535057
3750.000000	-85.196381
3773.437500	-81.190964
3796.875000	-83.502129
3820.312500	-82.256340
3843.750000	-82.829262
3867.187500	-86.777420
3890.625000	-94.166962
3914.062500	-94.408043
3937.500000	-91.088501
3960.937500	-90.209824
3984.375000	-90.109970
4007.812500	-88.047333
4031.250000	-89.197945
4054.687500	-87.908264
4078.125000	-82.010071
4101.562500	-83.174530
4125.000000	-91.572113
4148.437500	-93.609795
4171.875000	-93.493851
4195.312500	-88.262115
4218.750000	-82.857384
4242.187500	-78.086311
4265.625000	-79.733276
4289.062500	-84.885704
4312.500000	-83.686951
4335.937500	-79.757774
4359.375000	-83.472130
4382.812500	-90.842484
4406.250000	-91.510193
4429.687500	-92.678352
4453.125000	-89.790291
4476.562500	-84.961395
4500.000000	-85.987053
4523.437500	-90.678711
4546.875000	-90.605888
4570.312500	-90.260742
4593.750000	-87.448387
4617.187500	-86.755890
4640.625000	-92.413872
4664.062500	-94.717094
4687.500000	-91.142815
4710.937500	-92.611130
4734.375000	-90.832565
4757.812500	-87.578270
4781.250000	-90.092255
4804.687500	-95.447876
4828.125000	-93.245064
4851.562500	-91.041405
4875.000000	-89.129272
4898.437500	-90.434639
4921.875000	-84.996613
4945.312500	-83.948288
4968.750000	-92.245354
4992.187500	-97.535561
5015.625000	-99.864594
5039.062500	-95.546837
5062.500000	-88.381371
5085.937500	-90.364502
5109.375000	-94.704636
5132.812500	-85.626663
5156.250000	-83.204689
5179.687500	-87.943405
5203.125000	-95.198044
5226.562500	-97.203613
5250.000000	-98.191544
5273.437500	-97.532959
5296.875000	-100.235298
5320.312500	-99.114159
5343.750000	-96.138283
5367.187500	-94.070183
5390.625000	-94.703552
5414.062500	-96.158081
5437.500000	-96.417656
5460.937500	-95.280655
5484.375000	-94.282333
5507.812500	-96.365837
5531.250000	-96.357826
5554.687500	-93.582863
5578.125000	-93.238533
5601.562500	-96.702095
5625.000000	-97.575584
5648.437500	-103.444786
5671.875000	-103.778198
5695.312500	-97.303062
5718.750000	-92.545288
5742.187500	-95.852776
5765.625000	-99.038261
5789.062500	-100.337601
5812.500000	-93.783302
5835.937500	-88.580353
5859.375000	-91.450798
5882.812500	-97.470245
5906.250000	-97.692368
5929.687500	-97.899818
5953.125000	-96.144875
5976.562500	-94.708893
6000.000000	-99.779755
6023.437500	-104.583313
6046.875000	-102.090248
6070.312500	-94.703133
6093.750000	-90.164291
6117.187500	-92.176811
6140.625000	-98.649826
6164.062500	-98.617325
6187.500000	-96.123962
6210.937500	-97.698593
6234.375000	-97.088547
6257.812500	-99.594101
6281.250000	-97.647430
6304.687500	-97.023506
6328.125000	-99.641006
6351.562500	-102.009705
6375.000000	-98.651970
6398.437500	-100.651062
6421.875000	-104.875572
6445.312500	-103.264915
6468.750000	-99.637611
6492.187500	-98.387421
6515.625000	-98.866386
6539.062500	-102.610870
6562.500000	-100.561005
6585.937500	-97.442574
6609.375000	-93.959068
6632.812500	-96.269775
6656.250000	-102.461250
6679.687500	-100.992973
6703.125000	-102.434135
6726.562500	-103.934303
6750.000000	-103.772011
6773.437500	-102.462036
6796.875000	-102.726212
6820.312500	-102.552345
6843.750000	-106.136452
6867.187500	-107.495377
6890.625000	-102.546455
6914.062500	-100.936539
6937.500000	-103.907127
6960.937500	-104.081779
6984.375000	-100.420479
7007.812500	-98.373802
7031.250000	-93.823463
7054.687500	-96.840073
7078.125000	-107.166557
7101.562500	-106.497566
7125.000000	-105.644066
7148.437500	-106.593033
7171.875000	-110.029221
7195.312500	-106.287346
7218.750000	-105.196106
7242.187500	-107.654419
7265.625000	-105.849525
7289.062500	-108.273438
7312.500000	-112.337639
7335.937500	-109.685005
7359.375000	-109.311424
7382.812500	-111.368118
7406.250000	-107.984627
7429.687500	-107.492966
7453.125000	-107.313942
7476.562500	-102.023369
7500.000000	-97.654205
7523.437500	-94.765137
7546.875000	-97.547287
7570.312500	-106.248161
7593.750000	-109.268021
7617.187500	-108.431152
7640.625000	-108.832344
7664.062500	-106.011032
7687.500000	-102.806435
7710.937500	-107.004562
7734.375000	-109.707108
7757.812500	-107.062096
7781.250000	-108.218338
7804.687500	-109.448502
7828.125000	-106.948776
7851.562500	-98.019424
7875.000000	-97.585320
7898.437500	-106.499466
7921.875000	-111.078911
7945.312500	-110.562340
7968.750000	-106.290436
7992.187500	-102.488594
8015.625000	-102.286270
8039.062500	-107.101463
8062.500000	-106.732613
8085.937500	-105.959068
8109.375000	-107.116478
8132.812500	-111.864418
8156.250000	-114.388245
8179.687500	-113.959312
8203.125000	-114.333618
8226.562500	-113.845085
8250.000000	-107.239388
8273.437500	-106.290970
8296.875000	-110.960083
8320.312500	-107.907532
8343.750000	-107.737259
8367.187500	-109.241798
8390.625000	-111.342552
8414.062500	-113.606270
8437.500000	-109.008049
8460.937500	-108.723114
8484.375000	-111.555695
8507.812500	-105.180603
8531.250000	-102.721420
8554.687500	-103.468658
8578.125000	-106.101120
8601.562500	-111.570496
8625.000000	-113.554901
8648.437500	-114.718666
8671.875000	-114.019470
8695.312500	-115.031860
8718.750000	-114.011345
8742.187500	-112.593025
8765.625000	-114.254303
8789.062500	-115.225044
8812.500000	-114.748222
8835.937500	-113.701080
8859.375000	-111.780830
8882.812500	-109.710724
8906.250000	-110.943947
8929.687500	-113.675735
8953.125000	-113.900772
8976.562500	-109.235863
9000.000000	-102.954514
9023.437500	-102.554665
9046.875000	-104.483116
9070.312500	-106.668259
9093.750000	-108.510384
9117.187500	-109.261780
9140.625000	-110.318253
9164.062500	-114.755318
9187.500000	-116.013100
9210.937500	-116.184967
9234.375000	-115.402885
9257.812500	-115.045830
9281.250000	-114.581673
9304.687500	-114.012505
9328.125000	-115.667526
9351.562500	-115.268135
9375.000000	-111.392960
9398.437500	-107.041298
9421.875000	-105.702972
9445.312500	-105.919167
9468.750000	-109.017189
9492.187500	-112.517387
9515.625000	-113.074493
9539.062500	-114.893448
9562.500000	-115.348808
9585.937500	-113.227196
9609.375000	-112.814529
9632.812500	-112.263451
9656.250000	-114.257988
9679.687500	-116.237221
9703.125000	-115.166145
9726.562500	-115.470253
9750.000000	-116.721901
9773.437500	-115.431808
9796.875000	-116.347466
9820.312500	-115.402733
9843.750000	-112.663429
9867.187500	-111.882362
9890.625000	-114.642479
9914.062500	-116.889740
9937.500000	-115.726151
9960.937500	-114.493004
9984.375000	-111.770538
10007.812500	-108.025238
10031.250000	-103.607620
10054.687500	-103.505600
10078.125000	-105.721504
10101.562500	-109.364227
10125.000000	-111.158012
10148.437500	-111.920166
10171.875000	-113.324913
10195.312500	-114.815796
10218.750000	-116.904877
10242.187500	-115.073570
10265.625000	-113.495880
10289.062500	-114.515762
10312.500000	-114.311348
10335.937500	-114.635818
10359.375000	-115.719856
10382.812500	-113.557747
10406.250000	-111.431320
10429.687500	-106.575378
10453.125000	-106.988731
10476.562500	-111.506897
10500.000000	-113.555115
10523.437500	-114.267860
10546.875000	-116.240059
10570.312500	-114.149574
10593.750000	-114.896034
10617.187500	-118.390701
10640.625000	-118.710564
10664.062500	-118.111481
10687.500000	-117.680618
10710.937500	-115.212433
10734.375000	-112.802162
10757.812500	-111.989754
10781.250000	-113.414635
10804.687500	-117.152985
10828.125000	-117.865250
10851.562500	-119.294479
10875.000000	-119.833221
10898.437500	-118.882462
10921.875000	-118.987335
10945.312500	-119.588539
10968.750000	-120.834900
10992.187500	-119.878571
11015.625000	-117.821510
11039.062500	-118.301170
11062.500000	-119.190414
11085.937500	-118.161079
11109.375000	-116.403793
11132.812500	-116.152336
11156.250000	-115.593719
11179.687500	-113.649361
11203.125000	-111.522156
11226.562500	-110.997589
11250.000000	-114.993439
11273.437500	-117.636322
11296.875000	-121.163445
11320.312500	-119.568741
11343.750000	-117.361473
11367.187500	-118.327995
11390.625000	-117.828773
11414.062500	-118.892761
11437.500000	-117.931549
11460.937500	-117.774803
11484.375000	-118.299820
11507.812500	-118.696579
11531.250000	-121.087402
11554.687500	-121.772232
11578.125000	-121.351028
11601.562500	-119.671425
11625.000000	-120.109428
11648.437500	-121.174721
11671.875000	-120.164612
11695.312500	-120.786133
11718.750000	-119.638306
11742.187500	-119.050613
11765.625000	-121.264854
11789.062500	-121.902565
11812.500000	-122.751762
11835.937500	-122.560890
11859.375000	-121.963089
11882.812500	-121.107101
11906.250000	-118.943497
11929.687500	-119.006119
11953.125000	-122.048317
11976.562500	-123.338432
12000.000000	-123.257713
12023.437500	-122.270401
12046.875000	-122.141701
12070.312500	-122.250404
12093.750000	-121.976845
12117.187500	-123.329506
12140.625000	-123.317818
12164.062500	-121.433975
12187.500000	-120.602776
12210.937500	-119.555763
12234.375000	-115.931755
12257.812500	-114.854233
12281.250000	-118.834953
12304.687500	-119.709320
12328.125000	-119.601067
12351.562500	-122.245033
12375.000000	-122.679138
12398.437500	-122.453125
12421.875000	-122.662079
12445.312500	-123.850853
12468.750000	-123.605751
12492.187500	-123.309990
12515.625000	-123.512962
12539.062500	-124.427177
12562.500000	-124.511192
12585.937500	-122.720612
12609.375000	-121.783173
12632.812500	-121.888031
12656.250000	-121.256714
12679.687500	-122.392624
12703.125000	-123.360458
12726.562500	-122.450371
12750.000000	-123.966370
12773.437500	-124.310104
12796.875000	-123.742882
12820.312500	-122.167068
12843.750000	-121.738396
12867.187500	-123.639915
12890.625000	-124.680771
12914.062500	-124.364960
12937.500000	-123.961433
12960.937500	-122.977180
12984.375000	-123.916084
13007.812500	-124.587982
13031.250000	-124.665771
13054.687500	-125.440384
13078.125000	-124.552406
13101.562500	-123.948639
13125.000000	-123.875420
13148.437500	-123.461899
13171.875000	-122.793045
13195.312500	-121.772949
13218.750000	-122.627930
13242.187500	-123.138077
13265.625000	-123.359474
13289.062500	-123.579102
13312.500000	-124.501793
13335.937500	-124.889084
13359.375000	-125.057358
13382.812500	-124.389656
13406.250000	-124.126144
13429.687500	-123.355690
13453.125000	-121.590889
13476.562500	-119.416740
13500.000000	-120.595619
13523.437500	-121.894203
13546.875000	-123.540604
13570.312500	-124.266754
13593.750000	-125.596710
13617.187500	-125.871803
13640.625000	-125.725861
13664.062500	-123.452919
13687.500000	-121.751694
13710.937500	-122.722420
13734.375000	-124.691422
13757.812500	-125.829445
13781.250000	-126.328079
13804.687500	-125.693092
13828.125000	-125.591812
13851.562500	-125.745316
13875.000000	-126.051193
13898.437500	-126.293503
13921.875000	-126.271759
13945.312500	-126.256378
13968.750000	-126.090675
13992.187500	-126.200638
14015.625000	-126.021790
14039.062500	-125.691238
14062.500000	-125.801437
14085.937500	-125.548233
14109.375000	-125.131340
14132.812500	-125.249802
14156.250000	-125.615913
14179.687500	-125.846321
14203.125000	-126.026657
14226.562500	-125.551445
14250.000000	-125.249420
14273.437500	-125.508186
14296.875000	-126.012909
14320.312500	-126.275917
14343.750000	-126.127205
14367.187500	-125.933540
14390.625000	-126.383690
14414.062500	-126.752785
14437.500000	-126.453941
14460.937500	-126.006180
14484.375000	-126.072914
14507.812500	-126.458420
14531.250000	-124.833382
14554.687500	-124.895378
14578.125000	-126.011810
14601.562500	-126.294655
14625.000000	-126.488724
14648.437500	-125.356712
14671.875000	-123.090805
14695.312500	-122.284317
14718.750000	-123.096695
14742.187500	-123.864586
14765.625000	-124.650162
14789.062500	-125.940765
14812.500000	-126.001312
14835.937500	-125.830505
14859.375000	-125.697823
14882.812500	-125.713341
14906.250000	-126.417572
14929.687500	-126.672882
14953.125000	-126.523239
14976.562500	-126.259796
15000.000000	-126.010330
15023.437500	-125.584213
15046.875000	-125.181480
15070.312500	-125.036888
15093.750000	-125.531281
15117.187500	-125.625061
15140.625000	-125.453743
15164.062500	-126.107170
15187.500000	-126.477654
15210.937500	-126.640495
15234.375000	-127.044510
15257.812500	-126.937805
15281.250000	-127.115570
15304.687500	-127.284973
15328.125000	-127.435226
15351.562500	-127.476074
15375.000000	-127.246742
15398.437500	-127.245056
15421.875000	-127.021835
15445.312500	-126.604523
15468.750000	-126.347031
15492.187500	-126.724159
15515.625000	-127.292030
15539.062500	-127.244972
15562.500000	-126.880638
15585.937500	-126.693062
15609.375000	-126.456169
15632.812500	-126.101517
15656.250000	-126.136833
15679.687500	-125.935402
15703.125000	-126.205078
15726.562500	-126.327080
15750.000000	-126.484047
15773.437500	-126.460442
15796.875000	-126.358727
15820.312500	-126.606529
15843.750000	-126.973938
15867.187500	-126.924294
15890.625000	-126.478981
15914.062500	-125.959778
15937.500000	-125.295921
15960.937500	-124.256317
15984.375000	-123.564178
16007.812500	-123.863533
16031.250000	-125.023293
16054.687500	-125.762802
16078.125000	-126.640427
16101.562500	-127.067085
16125.000000	-127.240005
16148.437500	-127.290115
16171.875000	-127.267502
16195.312500	-127.198624
16218.750000	-127.417038
16242.187500	-127.524033
16265.625000	-127.409409
16289.062500	-127.212799
16312.500000	-127.429321
16335.937500	-127.514488
16359.375000	-127.451462
16382.812500	-127.340424
16406.250000	-127.386520
16429.687500	-127.330772
16453.125000	-127.422630
16476.562500	-127.573006
16500.000000	-127.407249
16523.437500	-127.424500
16546.875000	-127.381126
16570.312500	-127.220268
16593.750000	-127.137276
16617.187500	-127.014336
16640.625000	-126.856865
16664.062500	-127.085449
16687.500000	-127.424339
16710.937500	-127.457298
16734.375000	-127.557594
16757.812500	-127.728096
16781.250000	-127.664825
16804.687500	-127.600235
16828.125000	-127.594292
16851.562500	-127.435730
16875.000000	-127.494904
16898.437500	-127.730888
16921.875000	-127.680389
16945.312500	-127.546860
16968.750000	-127.645744
16992.187500	-127.588120
17015.625000	-127.210709
17039.062500	-126.897011
17062.500000	-126.557083
17085.937500	-126.949913
17109.375000	-127.377556
17132.812500	-127.353256
17156.250000	-127.231979
17179.687500	-126.969414
17203.125000	-126.406097
17226.562500	-125.702431
17250.000000	-125.004013
17273.437500	-124.210716
17296.875000	-124.977394
17320.312500	-126.766747
17343.750000	-127.549278
17367.187500	-127.834587
17390.625000	-127.977203
17414.062500	-127.981255
17437.500000	-127.989410
17460.937500	-127.933899
17484.375000	-128.015533
17507.812500	-127.912086
17531.250000	-127.892929
17554.687500	-127.751793
17578.125000	-127.770775
17601.562500	-127.921066
17625.000000	-127.853371
17648.437500	-127.989265
17671.875000	-127.994019
17695.312500	-128.000076
17718.750000	-127.996933
17742.187500	-127.981476
17765.625000	-127.816719
17789.062500	-127.737083
17812.500000	-127.798340
17835.937500	-127.853493
17859.375000	-127.901321
17882.812500	-127.947968
17906.250000	-127.905724
17929.687500	-127.983780
17953.125000	-127.915413
17976.562500	-127.756966
18000.000000	-127.332626
18023.437500	-127.625526
18046.875000	-127.804199
18070.312500	-127.782707
18093.750000	-127.879860
18117.187500	-127.920853
18140.625000	-127.927773
18164.062500	-127.852127
18187.500000	-127.856239
18210.937500	-127.896088
18234.375000	-127.976547
18257.812500	-128.006531
18281.250000	-127.983665
18304.687500	-127.851669
18328.125000	-127.947830
18351.562500	-127.998970
18375.000000	-127.919220
18398.437500	-127.877594
18421.875000	-127.844582
18445.312500	-127.856201
18468.750000	-127.714569
18492.187500	-127.480881
18515.625000	-127.420067
18539.062500	-127.424324
18562.500000	-127.238914
18585.937500	-126.858711
18609.375000	-127.040222
18632.812500	-127.435539
18656.250000	-127.797287
18679.687500	-127.966064
18703.125000	-127.881439
18726.562500	-127.832840
18750.000000	-127.857956
18773.437500	-127.969376
18796.875000	-128.106506
18820.312500	-128.094955
18843.750000	-128.087891
18867.187500	-128.096603
18890.625000	-128.021179
18914.062500	-128.180756
18937.500000	-128.210480
18960.937500	-128.044556
18984.375000	-127.658051
19007.812500	-127.866226
19031.250000	-127.981056
19054.687500	-128.029449
19078.125000	-127.886658
19101.562500	-127.552948
19125.000000	-127.215530
19148.437500	-126.446487
19171.875000	-125.373672
19195.312500	-124.116646
19218.750000	-123.519775
19242.187500	-124.495743
19265.625000	-125.881393
19289.062500	-125.817131
19312.500000	-125.774765
19335.937500	-125.958984
19359.375000	-125.911865
19382.812500	-126.491646
19406.250000	-126.970428
19429.687500	-127.250458
19453.125000	-127.470642
19476.562500	-127.530685
19500.000000	-127.331863
19523.437500	-127.772568
19546.875000	-127.822205
19570.312500	-127.748405
19593.750000	-127.913795
19617.187500	-127.863525
19640.625000	-127.909508
19664.062500	-127.959236
19687.500000	-127.905327
19710.937500	-127.741714
19734.375000	-127.844482
19757.812500	-127.932701
19781.250000	-127.997086
19804.687500	-128.069229
19828.125000	-128.035706
19851.562500	-127.979782
19875.000000	-127.934540
19898.437500	-127.941750
19921.875000	-128.047409
19945.312500	-128.001007
19968.750000	-127.958321
19992.187500	-127.977600
20015.625000	-127.900490
20039.062500	-127.899139
20062.500000	-128.005722
20085.937500	-128.003159
20109.375000	-127.665558
20132.812500	-126.890152
20156.250000	-127.708496
20179.687500	-128.062119
20203.125000	-128.198166
20226.562500	-128.209564
20250.000000	-128.131363
20273.437500	-127.984512
20296.875000	-128.012802
20320.312500	-128.079269
20343.750000	-128.059494
20367.187500	-128.051575
20390.625000	-128.177444
20414.062500	-128.192734
20437.500000	-128.246338
20460.937500	-128.250153
20484.375000	-128.207947
20507.812500	-128.190552
20531.250000	-128.170547
20554.687500	-128.220001
20578.125000	-128.117493
20601.562500	-128.074005
20625.000000	-128.111755
20648.437500	-128.104431
20671.875000	-128.191910
20695.312500	-128.195023
20718.750000	-128.296310
20742.187500	-128.256271
20765.625000	-128.218903
20789.062500	-128.237213
20812.500000	-128.250305
20835.937500	-128.272644
20859.375000	-128.255585
20882.812500	-128.254089
20906.250000	-128.322098
20929.687500	-128.280533
20953.125000	-128.131714
20976.562500	-127.973640
21000.000000	-127.765244
21023.437500	-128.050461
21046.875000	-128.062897
21070.312500	-128.038147
21093.750000	-128.063522
21117.187500	-128.112045
21140.625000	-128.138428
21164.062500	-128.124344
21187.500000	-128.322769
21210.937500	-128.311417
21234.375000	-128.345901
21257.812500	-128.373672
21281.250000	-128.336456
21304.687500	-128.331970
21328.125000	-128.260056
21351.562500	-128.387466
21375.000000	-128.286087
21398.437500	-128.228745
21421.875000	-128.291565
21445.312500	-128.369598
21468.750000	-128.285751
21492.187500	-128.140976
21515.625000	-128.164856
21539.062500	-128.276276
21562.500000	-128.079788
21585.937500	-128.045471
21609.375000	-128.124527
21632.812500	-128.232758
21656.250000	-128.282593
21679.687500	-128.296219
21703.125000	-128.297440
21726.562500	-128.221329
21750.000000	-128.259674
21773.437500	-128.364624
21796.875000	-128.346588
21820.312500	-128.296310
21843.750000	-128.342422
21867.187500	-128.402145
21890.625000	-128.427704
21914.062500	-128.407898
21937.500000	-128.385925
21960.937500	-128.297485
21984.375000	-128.220840
22007.812500	-128.229279
22031.250000	-128.279221
22054.687500	-128.321182
22078.125000	-128.317520
22101.562500	-128.334381
22125.000000	-128.290985
22148.437500	-128.331253
22171.875000	-128.328812
22195.312500	-128.393097
22218.750000	-128.399567
22242.187500	-128.224121
22265.625000	-128.202698
22289.062500	-128.191803
22312.500000	-128.213989
22335.937500	-128.171494
22359.375000	-128.161179
22382.812500	-128.220734
22406.250000	-128.290161
22429.687500	-128.250427
22453.125000	-128.309204
22476.562500	-128.282898
22500.000000	-128.184860
22523.437500	-128.416794
22546.875000	-128.403473
22570.312500	-128.229446
22593.750000	-128.258682
22617.187500	-128.366180
22640.625000	-128.304443
22664.062500	-128.190079
22687.500000	-128.120377
22710.937500	-128.161819
22734.375000	-128.143555
22757.812500	-128.052383
22781.250000	-128.135483
22804.687500	-128.115921
22828.125000	-128.160248
22851.562500	-128.290466
22875.000000	-128.278336
22898.437500	-128.218201
22921.875000	-128.159470
22945.312500	-128.169678
22968.750000	-128.217056
22992.187500	-128.230042
23015.625000	-128.196136
23039.062500	-128.169861
23062.500000	-128.161041
23085.937500	-128.107758
23109.375000	-128.161118
23132.812500	-128.243866
23156.250000	-128.186172
23179.687500	-128.260849
23203.125000	-128.319977
23226.562500	-128.328491
23250.000000	-128.366394
23273.437500	-128.341049
23296.875000	-128.396881
23320.312500	-128.308395
23343.750000	-128.280975
23367.187500	-128.384415
23390.625000	-128.208801
23414.062500	-128.180923
23437.500000	-128.175293
23460.937500	-128.206207
23484.375000	-128.237122
23507.812500	-128.281876
23531.250000	-128.257019
23554.687500	-128.232376
23578.125000	-128.232269
23601.562500	-128.248474
23625.000000	-128.244507
23648.437500	-128.176804
23671.875000	-128.250580
23695.312500	-128.324478
23718.750000	-128.309128
23742.187500	-128.387512
23765.625000	-128.341919
23789.062500	-128.318192
23812.500000	-128.349182
23835.937500	-128.283585
23859.375000	-128.262360
23882.812500	-128.300217
23906.250000	-128.353119
23929.687500	-128.312225
23953.125000	-128.233261
23976.562500	-128.349808
24000.000000	-128.235535
24023.437500	-128.273819
24046.875000	-128.323044
24070.312500	-128.337402
24093.750000	-128.354813
24117.187500	-128.404861
24140.625000	-128.368408
24164.062500	-128.332611
24187.500000	-128.287750
24210.937500	-128.290543
24234.375000	-128.270172
24257.812500	-128.232056
24281.250000	-128.220245
24304.687500	-128.245178
24328.125000	-128.310333
24351.562500	-128.234360
24375.000000	-128.314240
24398.437500	-128.303146
24421.875000	-128.323441
24445.312500	-128.332199
24468.750000	-128.417252
24492.187500	-128.352249
24515.625000	-128.318695
24539.062500	-128.302292
24562.500000	-128.206818
24585.937500	-128.056778
24609.375000	-128.042160
24632.812500	-128.006104
24656.250000	-128.052246
24679.687500	-128.045761
24703.125000	-128.100220
24726.562500	-128.192200
24750.000000	-128.119614
24773.437500	-128.271454
24796.875000	-128.256287
24820.312500	-128.254120
24843.750000	-128.306458
24867.187500	-128.438629
24890.625000	-128.318512
24914.062500	-128.257782
24937.500000	-128.287323
24960.937500	-128.262787
24984.375000	-128.195816
25007.812500	-128.247955
25031.250000	-128.229553
25054.687500	-128.202896
25078.125000	-128.265762
25101.562500	-128.351837
25125.000000	-128.333572
25148.437500	-128.290787
25171.875000	-128.234848
25195.312500	-128.247726
25218.750000	-128.325638
25242.187500	-128.297318
25265.625000	-128.223022
25289.062500	-128.215988
25312.500000	-128.231079
25335.937500	-128.351517
25359.375000	-128.296753
25382.812500	-128.240067
25406.250000	-128.281357
25429.687500	-128.314209
25453.125000	-128.303452
25476.562500	-128.266800
25500.000000	-128.242096
25523.437500	-128.321823
25546.875000	-128.339050
25570.312500	-128.359909
25593.750000	-128.283066
25617.187500	-128.281540
25640.625000	-128.285355
25664.062500	-128.258286
25687.500000	-128.252335
25710.937500	-128.155579
25734.375000	-128.150909
25757.812500	-128.223541
25781.250000	-128.314941
25804.687500	-128.342499
25828.125000	-128.303665
25851.562500	-128.300735
25875.000000	-128.311081
25898.437500	-128.283554
25921.875000	-128.347565
25945.312500	-128.202637
25968.750000	-128.196228
25992.187500	-128.197708
26015.625000	-128.211380
26039.062500	-128.349518
26062.500000	-128.356888
26085.937500	-128.272629
26109.375000	-128.301315
26132.812500	-128.326492
26156.250000	-128.295929
26179.687500	-128.297318
26203.125000	-128.257950
26226.562500	-128.193207
26250.000000	-128.106400
26273.437500	-127.970909
26296.875000	-127.753731
26320.312500	-127.612968
26343.750000	-127.810692
26367.187500	-128.083221
26390.625000	-128.143646
26414.062500	-128.221619
26437.500000	-128.185333
26460.937500	-128.289139
26484.375000	-128.279144
26507.812500	-128.167862
26531.250000	-128.171371
26554.687500	-128.200653
26578.125000	-128.247299
26601.562500	-128.375626
26625.000000	-128.308838
26648.437500	-128.244247
26671.875000	-128.253647
26695.312500	-128.286346
26718.750000	-128.340027
26742.187500	-128.332458
26765.625000	-128.360367
26789.062500	-128.337158
26812.500000	-128.259628
26835.937500	-128.252548
26859.375000	-128.259476
26882.812500	-128.325455
26906.250000	-128.381317
26929.687500	-128.319214
26953.125000	-128.311798
26976.562500	-128.297501
27000.000000	-128.170853
27023.437500	-128.138229
27046.875000	-128.199905
27070.312500	-128.236298
27093.750000	-128.309738
27117.187500	-128.324951
27140.625000	-128.233521
27164.062500	-128.166794
27187.500000	-128.151337
27210.937500	-128.205490
27234.375000	-128.288712
27257.812500	-128.248886
27281.250000	-128.254272
27304.687500	-128.202393
27328.125000	-128.206421
27351.562500	-128.153473
27375.000000	-128.130402
27398.437500	-128.208710
27421.875000	-128.306442
27445.312500	-128.234589
27468.750000	-128.217072
27492.187500	-128.199249
27515.625000	-128.283768
27539.062500	-128.197388
27562.500000	-128.245667
27585.937500	-128.211639
27609.375000	-128.173431
27632.812500	-128.296158
27656.250000	-128.245834
27679.687500	-128.153931
27703.125000	-128.179001
27726.562500	-128.199066
27750.000000	-128.276978
27773.437500	-128.254807
27796.875000	-128.213104
27820.312500	-128.081009
27843.750000	-128.146973
27867.187500	-128.099625
27890.625000	-128.074570
27914.062500	-128.201950
27937.500000	-128.079346
27960.937500	-128.041321
27984.375000	-127.946236
28007.812500	-128.007523
28031.250000	-128.150803
28054.687500	-128.107162
28078.125000	-128.104889
28101.562500	-128.219101
28125.000000	-128.295334
28148.437500	-128.213211
28171.875000	-128.227051
28195.312500	-128.258972
28218.750000	-128.326645
28242.187500	-128.217346
28265.625000	-128.194061
28289.062500	-128.225983
28312.500000	-128.221252
28335.937500	-128.165726
28359.375000	-128.180588
28382.812500	-128.251572
28406.250000	-128.210663
28429.687500	-128.226044
28453.125000	-128.285294
28476.562500	-128.322845
28500.000000	-128.358185
28523.437500	-128.282852
28546.875000	-128.313614
28570.312500	-128.323807
28593.750000	-128.170212
28617.187500	-128.181717
28640.625000	-128.198685
28664.062500	-128.218414
28687.500000	-128.202789
28710.937500	-128.171936
28734.375000	-128.177338
28757.812500	-128.230927
28781.250000	-128.311752
28804.687500	-128.294708
28828.125000	-128.265900
28851.562500	-128.243439
28875.000000	-128.265121
28898.437500	-128.283615
28921.875000	-128.301086
28945.312500	-128.312836
28968.750000	-128.212921
28992.187500	-128.212082
29015.625000	-128.239502
29039.062500	-128.266739
29062.500000	-128.231888
29085.937500	-128.246552
29109.375000	-128.244049
29132.812500	-128.237885
29156.250000	-128.327225
29179.687500	-128.223282
29203.125000	-128.209930
29226.562500	-128.229019
29250.000000	-128.220413
29273.437500	-128.236328
29296.875000	-128.266846
29320.312500	-128.289719
29343.750000	-128.297943
29367.187500	-128.279205
29390.625000	-128.291718
29414.062500	-128.235107
29437.500000	-128.195816
29460.937500	-128.241501
29484.375000	-128.123260
29507.812500	-128.190674
29531.250000	-128.174408
29554.687500	-128.208054
29578.125000	-128.166611
29601.562500	-128.114532
29625.000000	-128.188919
29648.437500	-128.076553
29671.875000	-128.127594
29695.312500	-128.217102
29718.750000	-128.180771
29742.187500	-128.143646
29765.625000	-128.098724
29789.062500	-128.214523
29812.500000	-128.219574
29835.937500	-128.180145
29859.375000	-128.195206
29882.812500	-128.250565
29906.250000	-128.326050
29929.687500	-128.183228
29953.125000	-128.163528
29976.562500	-128.224228
30000.000000	-128.149628
30023.437500	-128.301987
30046.875000	-128.308456
30070.312500	-128.180374
30093.750000	-128.200043
30117.187500	-128.185623
30140.625000	-128.135513
30164.062500	-128.178864
30187.500000	-128.226105
30210.937500	-128.214096
30234.375000	-128.180435
30257.812500	-128.122498
30281.250000	-128.224060
30304.687500	-128.242355
30328.125000	-128.344162
30351.562500	-128.275970
30375.000000	-128.269012
30398.437500	-128.211395
30421.875000	-128.215210
30445.312500	-128.229462
30468.750000	-128.197342
30492.187500	-128.211761
30515.625000	-128.259750
30539.062500	-128.204407
30562.500000	-128.169647
30585.937500	-128.203918
30609.375000	-128.336777
30632.812500	-128.323532
30656.250000	-128.189651
30679.687500	-128.118149
30703.125000	-128.181519
30726.562500	-128.214172
30750.000000	-128.181229
30773.437500	-128.206711
30796.875000	-128.173859
30820.312500	-128.134445
30843.750000	-128.192520
30867.187500	-128.143036
30890.625000	-128.129379
30914.062500	-128.144608
30937.500000	-128.192505
30960.937500	-128.199387
30984.375000	-128.111557
31007.812500	-128.132965
31031.250000	-128.237564
31054.687500	-128.196350
31078.125000	-128.052429
31101.562500	-128.060959
31125.000000	-128.042725
31148.437500	-128.120392
31171.875000	-128.223801
31195.312500	-128.196869
31218.750000	-128.247772
31242.187500	-128.277664
31265.625000	-128.225708
31289.062500	-128.211823
31312.500000	-128.269257
31335.937500	-128.331772
31359.375000	-128.231812
31382.812500	-128.112900
31406.250000	-128.208878
31429.687500	-128.230164
31453.125000	-128.218094
31476.562500	-128.153763
31500.000000	-128.025208
31523.437500	-128.049820
31546.875000	-128.055725
31570.312500	-128.083908
31593.750000	-128.055283
31617.187500	-128.115540
31640.625000	-128.153198
31664.062500	-128.227859
31687.500000	-128.180649
31710.937500	-128.159164
31734.375000	-128.167816
31757.812500	-128.168427
31781.250000	-128.181885
31804.687500	-128.197937
31828.125000	-128.170776
31851.562500	-128.138474
31875.000000	-128.117523
31898.437500	-128.166000
31921.875000	-128.178940
31945.312500	-128.237976
31968.750000	-128.251144
31992.187500	-128.216293
32015.625000	-128.148499
32039.062500	-128.167953
32062.500000	-128.177963
32085.937500	-128.209595
32109.375000	-128.195343
32132.812500	-128.214371
32156.250000	-128.219818
32179.687500	-128.211060
32203.125000	-128.248154
32226.562500	-128.172623
32250.000000	-128.252762
32273.437500	-128.214233
32296.875000	-128.246414
32320.312500	-128.216965
32343.750000	-128.171326
32367.187500	-128.164902
32390.625000	-128.100540
32414.062500	-128.108841
32437.500000	-128.163315
32460.937500	-128.133545
32484.375000	-128.129852
32507.812500	-128.193085
32531.250000	-128.209030
32554.687500	-128.198380
32578.125000	-128.185562
32601.562500	-128.221893
32625.000000	-128.206039
32648.437500	-128.147369
32671.875000	-128.086517
32695.312500	-128.160049
32718.750000	-128.129684
32742.187500	-128.074814
32765.625000	-128.133957
32789.062500	-128.087692
32812.500000	-128.164734
32835.937500	-128.248245
32859.375000	-128.273392
32882.812500	-128.195984
32906.250000	-128.184280
32929.687500	-128.197113
32953.125000	-128.153915
32976.562500	-128.087662
33000.000000	-128.064102
33023.437500	-128.127777
33046.875000	-128.238785
33070.312500	-128.251221
33093.750000	-128.177216
33117.187500	-128.120819
33140.625000	-128.092285
33164.062500	-128.195679
33187.500000	-128.119629
33210.937500	-128.127716
33234.375000	-128.230698
33257.812500	-128.132202
33281.250000	-128.107895
33304.687500	-128.110916
33328.125000	-128.153534
33351.562500	-128.170517
33375.000000	-128.203979
33398.437500	-128.217102
33421.875000	-128.231644
33445.312500	-128.157913
33468.750000	-128.173767
33492.187500	-128.200516
33515.625000	-128.205292
33539.062500	-128.095367
33562.500000	-128.125854
33585.937500	-128.119873
33609.375000	-128.101700
33632.812500	-128.143158
33656.250000	-128.151367
33679.687500	-128.205948
33703.125000	-128.132782
33726.562500	-128.166199
33750.000000	-128.165405
33773.437500	-128.201309
33796.875000	-128.118835
33820.312500	-128.150055
33843.750000	-128.178558
33867.187500	-128.186630
33890.625000	-128.134995
33914.062500	-128.106400
33937.500000	-128.068024
33960.937500	-128.126801
33984.375000	-128.142746
34007.812500	-128.117432
34031.250000	-128.083084
34054.687500	-128.121017
34078.125000	-128.156021
34101.562500	-128.183609
34125.000000	-128.086838
34148.437500	-128.097015
34171.875000	-128.169220
34195.312500	-128.246399
34218.750000	-128.196808
34242.187500	-128.104523
34265.625000	-128.119888
34289.062500	-128.110245
34312.500000	-128.099091
34335.937500	-128.132721
34359.375000	-128.099396
34382.812500	-128.048737
34406.250000	-128.159958
34429.687500	-128.285858
34453.125000	-128.212082
34476.562500	-128.043335
34500.000000	-127.941582
34523.437500	-128.048386
34546.875000	-128.145172
34570.312500	-128.193604
34593.750000	-128.150558
34617.187500	-128.181244
34640.625000	-128.230255
34664.062500	-128.175369
34687.500000	-128.127533
34710.937500	-128.147537
34734.375000	-128.072845
34757.812500	-128.176163
34781.250000	-128.108551
34804.687500	-128.141678
34828.125000	-128.189423
34851.562500	-128.146988
34875.000000	-128.132843
34898.437500	-128.063904
34921.875000	-128.098572
34945.312500	-128.151001
34968.750000	-128.174362
34992.187500	-128.180847
35015.625000	-128.142273
35039.062500	-128.175125
35062.500000	-128.163391
35085.937500	-128.130661
35109.375000	-128.065613
35132.812500	-128.101440
35156.250000	-128.127396
35179.687500	-128.140015
35203.125000	-128.113739
35226.562500	-128.067154
35250.000000	-128.047318
35273.437500	-128.170532
35296.875000	-128.104828
35320.312500	-128.015259
35343.750000	-127.995972
35367.187500	-128.048889
35390.625000	-128.068909
35414.062500	-128.070587
35437.500000	-128.050537
35460.937500	-127.965767
35484.375000	-128.001938
35507.812500	-128.070206
35531.250000	-128.081314
35554.687500	-128.143097
35578.125000	-128.112579
35601.562500	-128.098480
35625.000000	-128.194412
35648.437500	-128.127777
35671.875000	-128.048859
35695.312500	-128.066635
35718.750000	-128.158188
35742.187500	-128.115189
35765.625000	-128.108917
35789.062500	-128.108170
35812.500000	-128.061203
35835.937500	-128.100845
35859.375000	-128.170822
35882.812500	-128.171494
35906.250000	-128.112595
35929.687500	-128.024704
35953.125000	-128.089157
35976.562500	-128.026276
36000.000000	-128.163528
36023.437500	-128.170837
36046.875000	-128.136536
36070.312500	-128.206451
36093.750000	-128.146301
36117.187500	-128.173370
36140.625000	-128.098892
36164.062500	-128.140900
36187.500000	-128.156204
36210.937500	-128.190826
36234.375000	-128.169937
36257.812500	-128.177597
36281.250000	-128.112335
36304.687500	-128.125275
36328.125000	-128.045944
36351.562500	-128.123138
36375.000000	-128.125168
36398.437500	-128.097733
36421.875000	-128.127258
36445.312500	-128.122192
36468.750000	-128.143494
36492.187500	-128.230301
36515.625000	-128.192657
36539.062500	-128.180466
36562.500000	-128.116486
36585.937500	-128.152908
36609.375000	-128.152206
36632.812500	-128.133591
36656.250000	-128.141266
36679.687500	-128.078949
36703.125000	-128.070694
36726.562500	-128.136536
36750.000000	-128.125015
36773.437500	-128.020294
36796.875000	-128.069611
36820.312500	-128.065170
36843.750000	-128.095200
36867.187500	-128.035233
36890.625000	-128.058426
36914.062500	-128.079010
36937.500000	-128.107864
36960.937500	-128.093735
36984.375000	-128.072128
37007.812500	-128.098831
37031.250000	-128.081558
37054.687500	-128.085617
37078.125000	-128.103867
37101.562500	-128.087692
37125.000000	-128.110687
37148.437500	-128.017349
37171.875000	-127.974510
37195.312500	-128.017288
37218.750000	-128.169479
37242.187500	-128.165085
37265.625000	-128.114716
37289.062500	-128.146408
37312.500000	-128.107834
37335.937500	-128.092163
37359.375000	-128.057037
37382.812500	-128.046432
37406.250000	-128.053513
37429.687500	-128.017319
37453.125000	-127.965820
37476.562500	-128.010681
37500.000000	-128.026047
37523.437500	-127.986305
37546.875000	-128.044296
37570.312500	-128.025665
37593.750000	-127.983231
37617.187500	-128.025238
37640.625000	-128.007126
37664.062500	-128.138443
37687.500000	-128.135010
37710.937500	-128.033356
37734.375000	-128.089523
37757.812500	-128.108704
37781.250000	-128.096954
37804.687500	-128.026840
37828.125000	-127.992630
37851.562500	-128.038361
37875.000000	-128.068329
37898.437500	-128.086121
37921.875000	-127.913460
37945.312500	-127.887054
37968.750000	-127.975197
37992.187500	-128.033813
38015.625000	-128.028900
38039.062500	-128.044754
38062.500000	-128.050018
38085.937500	-128.011978
38109.375000	-128.022171
38132.812500	-127.978867
38156.250000	-127.954185
38179.687500	-128.051834
38203.125000	-128.088684
38226.562500	-127.979652
38250.000000	-127.917618
38273.437500	-127.845947
38296.875000	-127.676727
38320.312500	-127.554459
38343.750000	-127.446228
38367.187500	-127.227341
38390.625000	-127.201920
38414.062500	-127.528465
38437.500000	-127.643524
38460.937500	-127.604797
38484.375000	-127.541092
38507.812500	-127.394897
38531.250000	-127.446190
38554.687500	-127.538094
38578.125000	-127.683594
38601.562500	-127.675560
38625.000000	-127.669693
38648.437500	-127.771904
38671.875000	-127.761368
38695.312500	-127.746330
38718.750000	-127.747780
38742.187500	-127.876015
38765.625000	-127.916992
38789.062500	-127.878441
38812.500000	-127.892883
38835.937500	-127.836266
38859.375000	-127.890007
38882.812500	-127.933380
38906.250000	-127.873215
38929.687500	-127.913261
38953.125000	-127.941635
38976.562500	-127.966591
39000.000000	-127.935646
39023.437500	-128.009720
39046.875000	-127.992073
39070.312500	-127.941132
39093.750000	-127.869286
39117.187500	-127.971130
39140.625000	-128.002975
39164.062500	-128.083420
39187.500000	-127.996529
39210.937500	-127.991920
39234.375000	-127.963875
39257.812500	-127.991318
39281.250000	-128.033493
39304.687500	-127.995079
39328.125000	-127.994904
39351.562500	-127.975380
39375.000000	-128.027618
39398.437500	-128.042389
39421.875000	-128.028412
39445.312500	-128.040359
39468.750000	-127.981361
39492.187500	-128.000443
39515.625000	-127.881973
39539.062500	-127.935989
39562.500000	-127.996536
39585.937500	-127.951103
39609.375000	-128.018082
39632.812500	-127.976318
39656.250000	-127.924324
39679.687500	-127.932289
39703.125000	-128.051453
39726.562500	-128.124695
39750.000000	-128.128967
39773.437500	-128.088852
39796.875000	-128.027069
39820.312500	-128.062469
39843.750000	-128.019669
39867.187500	-128.007492
39890.625000	-128.106812
39914.062500	-127.996681
39937.500000	-127.894012
39960.937500	-127.901436
39984.375000	-127.955383
40007.812500	-128.044952
40031.250000	-128.047485
40054.687500	-128.020508
40078.125000	-127.990738
40101.562500	-128.134933
40125.000000	-128.168167
40148.437500	-128.070007
40171.875000	-128.014313
40195.312500	-128.134216
40218.750000	-128.091599
40242.187500	-127.990135
40265.625000	-127.617561
40289.062500	-127.854881
40312.500000	-128.005630
40335.937500	-128.051727
40359.375000	-128.061386
40382.812500	-128.058365
40406.250000	-128.065262
40429.687500	-128.083267
40453.125000	-128.088516
40476.562500	-127.927505
40500.000000	-127.813576
40523.437500	-128.033188
40546.875000	-128.169006
40570.312500	-128.070251
40593.750000	-128.014557
40617.187500	-128.044250
40640.625000	-127.995071
40664.062500	-127.948685
40687.500000	-127.998131
40710.937500	-128.040802
40734.375000	-128.111496
40757.812500	-128.087601
40781.250000	-127.973213
40804.687500	-128.025116
40828.125000	-128.108017
40851.562500	-128.094681
40875.000000	-128.063721
40898.437500	-127.948227
40921.875000	-128.082169
40945.312500	-127.981041
40968.750000	-128.020233
40992.187500	-128.094040
41015.625000	-128.068069
41039.062500	-128.063019
41062.500000	-127.971794
41085.937500	-128.072983
41109.375000	-128.047104
41132.812500	-128.079865
41156.250000	-128.103882
41179.687500	-128.171021
41203.125000	-128.098602
41226.562500	-128.087830
41250.000000	-128.043777
41273.437500	-128.006638
41296.875000	-128.134125
41320.312500	-128.196640
41343.750000	-128.071732
41367.187500	-128.061172
41390.625000	-128.034561
41414.062500	-128.099640
41437.500000	-128.162445
41460.937500	-128.088409
41484.375000	-128.073746
41507.812500	-128.060623
41531.250000	-128.158844
41554.687500	-128.148956
41578.125000	-128.077362
41601.562500	-128.129913
41625.000000	-128.159470
41648.437500	-128.073898
41671.875000	-128.089859
41695.312500	-128.066696
41718.750000	-128.071594
41742.187500	-128.083664
41765.625000	-128.091492
41789.062500	-128.098770
41812.500000	-128.081192
41835.937500	-128.129547
41859.375000	-128.101288
41882.812500	-128.157730
41906.250000	-128.232635
41929.687500	-128.259842
41953.125000	-128.124939
41976.562500	-128.069046
42000.000000	-127.934105
42023.437500	-128.093903
42046.875000	-128.211121
42070.312500	-128.139282
42093.750000	-128.108826
42117.187500	-128.120148
42140.625000	-128.126022
42164.062500	-128.233765
42187.500000	-128.251831
42210.937500	-128.221725
42234.375000	-128.155991
42257.812500	-128.182693
42281.250000	-128.200317
42304.687500	-128.179352
42328.125000	-128.235977
42351.562500	-128.249374
42375.000000	-128.191452
42398.437500	-128.233627
42421.875000	-128.274414
42445.312500	-128.265686
42468.750000	-128.299713
42492.187500	-128.321518
42515.625000	-128.295639
42539.062500	-128.299774
42562.500000	-128.245483
42585.937500	-128.339890
42609.375000	-128.341446
42632.812500	-128.254150
42656.250000	-128.237167
42679.687500	-128.270874
42703.125000	-128.176834
42726.562500	-128.240036
42750.000000	-128.289825
42773.437500	-128.298752
42796.875000	-128.303314
42820.312500	-128.382507
42843.750000	-128.381790
42867.187500	-128.382721
42890.625000	-128.345291
42914.062500	-128.375854
42937.500000	-128.378952
42960.937500	-128.438019
42984.375000	-128.397324
43007.812500	-128.356232
43031.250000	-128.400055
43054.687500	-128.485886
43078.125000	-128.499710
43101.562500	-128.394196
43125.000000	-128.382065
43148.437500	-128.403687
43171.875000	-128.345566
43195.312500	-128.412262
43218.750000	-128.463409
43242.187500	-128.465851
43265.625000	-128.491730
43289.062500	-128.480148
43312.500000	-128.463623
43335.937500	-128.447067
43359.375000	-128.430939
43382.812500	-128.515244
43406.250000	-128.497375
43429.687500	-128.525772
43453.125000	-128.503799
43476.562500	-128.474258
43500.000000	-128.375031
43523.437500	-128.466995
43546.875000	-128.573059
43570.312500	-128.612671
43593.750000	-128.631668
43617.187500	-128.664932
43640.625000	-128.673676
43664.062500	-128.728485
43687.500000	-128.613663
43710.937500	-128.616486
43734.375000	-128.640564
43757.812500	-128.602722
43781.250000	-128.585754
43804.687500	-128.563705
43828.125000	-128.622498
43851.562500	-128.702637
43875.000000	-128.712830
43898.437500	-128.698288
43921.875000	-128.771729
43945.312500	-128.722778
43968.750000	-128.776611
43992.187500	-128.777954
44015.625000	-128.730789
44039.062500	-128.793777
44062.500000	-128.845810
44085.937500	-128.885590
44109.375000	-128.894379
44132.812500	-128.820007
44156.250000	-128.817535
44179.687500	-128.817429
44203.125000	-128.807648
44226.562500	-128.782990
44250.000000	-128.820740
44273.437500	-128.864243
44296.875000	-128.903839
44320.312500	-128.936356
44343.750000	-128.958908
44367.187500	-128.935822
44390.625000	-128.926422
44414.062500	-128.946594
44437.500000	-129.030167
44460.937500	-129.090683
44484.375000	-129.064804
44507.812500	-128.983658
44531.250000	-128.889389
44554.687500	-128.943909
44578.125000	-129.006409
44601.562500	-129.050674
44625.000000	-129.083023
44648.437500	-129.085220
44671.875000	-129.113342
44695.312500	-129.046265
44718.750000	-129.023956
44742.187500	-129.058212
44765.625000	-129.114670
44789.062500	-129.163605
44812.500000	-129.160965
44835.937500	-129.093079
44859.375000	-129.135803
44882.812500	-129.234207
44906.250000	-129.261459
44929.687500	-129.239746
44953.125000	-129.223999
44976.562500	-129.180389
45000.000000	-129.170471
45023.437500	-129.343491
45046.875000	-129.359314
45070.312500	-129.307755
45093.750000	-129.336655
45117.187500	-129.341965
45140.625000	-129.449829
45164.062500	-129.484619
45187.500000	-129.362930
45210.937500	-129.377792
45234.375000	-129.362198
45257.812500	-129.398941
45281.250000	-129.441666
45304.687500	-129.542938
45328.125000	-129.507523
45351.562500	-129.490341
45375.000000	-129.546310
45398.437500	-129.580093
45421.875000	-129.567963
45445.312500	-129.615417
45468.750000	-129.577560
45492.187500	-129.540070
45515.625000	-129.564896
45539.062500	-129.641983
45562.500000	-129.717239
45585.937500	-129.713181
45609.375000	-129.701035
45632.812500	-129.679855
45656.250000	-129.612305
45679.687500	-129.651428
45703.125000	-129.699203
45726.562500	-129.705933
45750.000000	-129.715195
45773.437500	-129.764420
45796.875000	-129.730743
45820.312500	-129.721481
45843.750000	-129.766220
45867.187500	-129.770370
45890.625000	-129.729858
45914.062500	-129.906693
45937.500000	-130.052551
45960.937500	-129.879654
45984.375000	-129.895233
46007.812500	-129.907654
46031.250000	-129.876450
46054.687500	-129.916946
46078.125000	-129.938293
46101.562500	-129.907791
46125.000000	-129.924347
46148.437500	-129.970963
46171.875000	-130.002777
46195.312500	-130.010635
46218.750000	-129.972946
46242.187500	-129.958191
46265.625000	-130.016586
46289.062500	-130.075302
46312.500000	-130.049240
46335.937500	-130.127396
46359.375000	-130.109879
46382.812500	-130.158112
46406.250000	-130.139679
46429.687500	-130.076477
46453.125000	-130.030365
46476.562500	-130.001221
46500.000000	-130.057892
46523.437500	-130.117767
46546.875000	-130.167374
46570.312500	-130.165451
46593.750000	-130.170013
46617.187500	-130.246307
46640.625000	-130.174149
46664.062500	-130.260025
46687.500000	-130.282043
46710.937500	-130.288330
46734.375000	-130.327377
46757.812500	-130.340408
46781.250000	-130.325363
46804.687500	-130.334381
46828.125000	-130.431305
46851.562500	-130.353912
46875.000000	-130.284042
46898.437500	-130.338531
46921.875000	-130.373550
46945.312500	-130.387970
46968.750000	-130.388138
46992.187500	-130.395050
47015.625000	-130.374420
47039.062500	-130.364914
47062.500000	-130.453842
47085.937500	-130.416702
47109.375000	-130.369781
47132.812500	-130.440521
47156.250000	-130.410385
47179.687500	-130.467896
47203.125000	-130.546432
47226.562500	-130.469360
47250.000000	-130.452759
47273.437500	-130.521698
47296.875000	-130.491394
47320.312500	-130.629776
47343.750000	-130.631775
47367.187500	-130.543854
47390.625000	-130.525208
47414.062500	-130.511520
47437.500000	-130.484482
47460.937500	-130.507690
47484.375000	-130.531830
47507.812500	-130.580582
47531.250000	-130.614731
47554.687500	-130.552841
47578.125000	-130.513397
47601.562500	-130.544373
47625.000000	-130.493423
47648.437500	-130.542908
47671.875000	-130.706451
47695.312500	-130.647827
47718.750000	-130.569733
47742.187500	-130.603622
47765.625000	-130.632721
47789.062500	-130.648865
47812.500000	-130.648865
47835.937500	-130.599823
47859.375000	-130.612778
47882.812500	-130.663116
47906.250000	-130.677063
47929.687500	-130.622421
47953.125000	-130.634476
47976.562500	-130.670624
