주파수 (Hz)	레벨 (dB)
23.437500	-89.821968
46.875000	-77.440697
70.312500	-61.196934
93.750000	-53.182682
117.187500	-48.710899
140.625000	-47.396389
164.062500	-50.329594
187.500000	-48.596756
210.937500	-48.490211
234.375000	-46.582710
257.812500	-42.099861
281.250000	-43.863503
304.687500	-42.703503
328.125000	-43.622932
351.562500	-44.751575
375.000000	-46.344837
398.437500	-44.355831
421.875000	-41.897984
445.312500	-42.039341
468.750000	-43.037308
492.187500	-44.088943
515.625000	-39.625458
539.062500	-40.442780
562.500000	-48.087383
585.937500	-47.651096
609.375000	-40.382210
632.812500	-38.638638
656.250000	-47.416779
679.687500	-47.589676
703.125000	-43.317745
726.562500	-46.665459
750.000000	-47.885696
773.437500	-46.996349
796.875000	-46.181339
820.312500	-42.588638
843.750000	-41.579659
867.187500	-50.433578
890.625000	-53.347813
914.062500	-56.374641
937.500000	-53.361565
960.937500	-55.085789
984.375000	-50.546925
1007.812500	-52.527031
1031.250000	-47.749977
1054.687500	-44.232224
1078.125000	-50.553005
1101.562500	-55.786701
1125.000000	-59.572849
1148.437500	-60.793846
1171.875000	-52.682049
1195.312500	-52.429016
1218.750000	-57.832508
1242.187500	-48.742859
1265.625000	-48.869129
1289.062500	-57.244247
1312.500000	-53.571541
1335.937500	-54.166088
1359.375000	-59.417786
1382.812500	-54.404083
1406.250000	-53.384453
1429.687500	-58.094830
1453.125000	-60.044899
1476.562500	-56.114964
1500.000000	-55.962006
1523.437500	-64.108131
1546.875000	-61.384464
1570.312500	-53.663021
1593.750000	-54.456306
1617.187500	-63.711670
1640.625000	-59.365807
1664.062500	-51.241177
1687.500000	-53.093887
1710.937500	-63.439880
1734.375000	-62.154835
1757.812500	-60.123917
1781.250000	-60.082375
1804.687500	-66.118416
1828.125000	-66.643005
1851.562500	-63.233582
1875.000000	-57.739006
1898.437500	-58.254700
1921.875000	-65.583748
1945.312500	-66.246552
1968.750000	-58.039619
1992.187500	-57.842987
2015.625000	-66.269325
2039.062500	-70.961823
2062.500000	-68.915840
2085.937500	-61.957912
2109.375000	-56.441479
2132.812500	-57.892994
2156.250000	-67.671959
2179.687500	-69.712540
2203.125000	-65.038086
2226.562500	-64.840607
2250.000000	-67.069283
2273.437500	-73.771454
2296.875000	-74.867760
2320.312500	-69.545685
2343.750000	-65.452621
2367.187500	-60.109577
2390.625000	-59.486492
2414.062500	-68.140488
2437.500000	-73.443741
2460.937500	-67.489754
2484.375000	-63.039612
2507.812500	-61.481285
2531.250000	-60.094036
2554.687500	-67.329185
2578.125000	-76.535820
2601.562500	-76.508560
2625.000000	-73.924194
2648.437500	-66.136772
2671.875000	-64.415977
2695.312500	-71.081261
2718.750000	-75.787697
2742.187500	-68.924446
2765.625000	-66.833412
2789.062500	-65.790756
2812.500000	-65.186867
2835.937500	-61.273636
2859.375000	-64.617287
2882.812500	-74.554459
2906.250000	-79.503487
2929.687500	-79.192299
2953.125000	-73.199181
2976.562500	-70.699951
3000.000000	-69.617615
3023.437500	-70.741211
3046.875000	-75.111145
3070.312500	-79.192841
3093.750000	-74.841049
3117.187500	-76.051117
3140.625000	-74.629341
3164.062500	-68.461456
3187.500000	-66.148041
3210.937500	-65.214806
3234.375000	-70.437347
3257.812500	-80.324181
3281.250000	-75.585281
3304.687500	-75.735954
3328.125000	-76.153984
3351.562500	-74.597733
3375.000000	-74.548714
3398.437500	-73.098877
3421.875000	-73.948128
3445.312500	-79.984138
3468.750000	-80.757988
3492.187500	-76.794609
3515.625000	-76.833710
3539.062500	-74.346916
3562.500000	-72.337959
3585.937500	-70.754921
3609.375000	-71.028381
3632.812500	-74.376854
3656.250000	-80.332382
3679.687500	-80.909531
3703.125000	-78.140984
3726.562500	-78.772293
3750.000000	-67.671959
3773.437500	-63.646755
3796.875000	-69.409233
3820.312500	-67.916748
3843.750000	-66.824280
3867.187500	-70.898827
3890.625000	-78.718117
3914.062500	-82.963524
3937.500000	-82.087601
3960.937500	-79.860580
3984.375000	-79.230133
4007.812500	-77.460236
4031.250000	-78.204750
4054.687500	-77.404938
4078.125000	-76.683723
4101.562500	-80.289246
4125.000000	-84.696884
4148.437500	-87.363464
4171.875000	-83.431313
4195.312500	-79.324501
4218.750000	-78.766472
4242.187500	-74.234459
4265.625000	-74.833672
4289.062500	-76.941841
4312.500000	-75.420135
4335.937500	-75.632500
4359.375000	-77.824181
4382.812500	-83.392914
4406.250000	-86.106911
4429.687500	-85.034378
4453.125000	-85.983810
4476.562500	-79.440742
4500.000000	-77.921570
4523.437500	-81.989960
4546.875000	-80.058937
4570.312500	-81.427559
4593.750000	-82.110085
4617.187500	-82.300514
4640.625000	-83.641945
4664.062500	-83.820213
4687.500000	-87.144867
4710.937500	-88.428543
4734.375000	-83.706512
4757.812500	-82.368111
4781.250000	-85.396896
4804.687500	-85.596016
4828.125000	-81.918571
4851.562500	-80.162186
4875.000000	-81.775627
4898.437500	-81.904701
4921.875000	-82.638794
4945.312500	-82.989594
4968.750000	-90.109505
4992.187500	-94.063202
5015.625000	-92.143448
5039.062500	-87.106110
5062.500000	-81.345276
5085.937500	-81.561440
5109.375000	-82.585854
5132.812500	-75.613060
5156.250000	-73.895317
5179.687500	-76.026497
5203.125000	-82.049492
5226.562500	-89.942940
5250.000000	-85.277916
5273.437500	-85.932167
5296.875000	-91.845642
5320.312500	-95.484512
5343.750000	-90.506599
5367.187500	-85.067741
5390.625000	-85.231964
5414.062500	-88.589912
5437.500000	-89.639305
5460.937500	-92.361305
5484.375000	-87.808434
5507.812500	-87.341881
5531.250000	-89.745392
5554.687500	-86.873154
5578.125000	-90.280441
5601.562500	-90.582626
5625.000000	-88.983406
5648.437500	-94.333122
5671.875000	-92.940468
5695.312500	-88.062843
5718.750000	-85.046326
5742.187500	-84.855270
5765.625000	-88.557007
5789.062500	-96.210152
5812.500000	-90.840477
5835.937500	-86.990776
5859.375000	-88.791397
5882.812500	-93.541061
5906.250000	-92.047455
5929.687500	-89.749634
5953.125000	-93.702003
5976.562500	-96.504814
6000.000000	-96.787735
6023.437500	-98.770561
6046.875000	-98.108864
6070.312500	-89.499771
6093.750000	-85.388008
6117.187500	-87.260323
6140.625000	-90.503807
6164.062500	-90.699287
6187.500000	-86.360168
6210.937500	-86.711266
6234.375000	-90.835876
6257.812500	-95.452370
6281.250000	-92.980865
6304.687500	-94.036270
6328.125000	-97.036591
6351.562500	-94.203972
6375.000000	-91.205818
6398.437500	-94.753014
6421.875000	-100.996246
6445.312500	-99.679314
6468.750000	-93.865143
6492.187500	-90.247711
6515.625000	-90.538010
6539.062500	-93.051804
6562.500000	-94.039970
6585.937500	-89.794037
6609.375000	-86.795258
6632.812500	-90.646271
6656.250000	-98.012886
6679.687500	-93.167107
6703.125000	-92.761086
6726.562500	-91.113121
6750.000000	-89.783676
6773.437500	-94.122353
6796.875000	-94.366447
6820.312500	-88.363235
6843.750000	-91.006348
6867.187500	-101.818832
6890.625000	-100.705399
6914.062500	-94.666824
6937.500000	-92.377174
6960.937500	-92.881973
6984.375000	-89.850090
7007.812500	-87.790154
7031.250000	-85.983063
7054.687500	-88.848579
7078.125000	-93.630981
7101.562500	-95.922768
7125.000000	-91.575882
7148.437500	-92.307663
7171.875000	-98.280579
7195.312500	-99.364761
7218.750000	-99.632805
7242.187500	-98.326187
7265.625000	-94.002731
7289.062500	-94.001358
7312.500000	-94.988312
7335.937500	-94.900024
7359.375000	-98.290474
7382.812500	-99.537086
7406.250000	-95.538597
7429.687500	-94.484444
7453.125000	-94.338776
7476.562500	-91.315773
7500.000000	-89.961555
7523.437500	-89.605858
7546.875000	-92.349556
7570.312500	-93.912170
7593.750000	-97.912956
7617.187500	-100.886528
7640.625000	-102.168739
7664.062500	-103.759010
7687.500000	-104.115494
7710.937500	-101.360962
7734.375000	-99.732948
7757.812500	-100.533020
7781.250000	-99.326698
7804.687500	-99.107071
7828.125000	-98.987663
7851.562500	-96.354736
7875.000000	-96.600693
7898.437500	-101.547058
7921.875000	-100.386314
7945.312500	-99.897049
7968.750000	-96.847610
7992.187500	-91.988052
8015.625000	-88.090446
8039.062500	-91.646477
8062.500000	-94.575607
8085.937500	-92.944672
8109.375000	-94.777618
8132.812500	-101.669098
8156.250000	-104.472939
8179.687500	-104.789825
8203.125000	-104.613228
8226.562500	-104.442177
8250.000000	-102.217293
8273.437500	-100.692551
8296.875000	-100.662628
8320.312500	-93.922691
8343.750000	-94.260124
8367.187500	-101.267822
8390.625000	-103.948288
8414.062500	-99.893578
8437.500000	-96.201424
8460.937500	-97.441872
8484.375000	-99.517372
8507.812500	-101.495888
8531.250000	-104.246170
8554.687500	-106.129433
8578.125000	-106.345085
8601.562500	-107.688194
8625.000000	-108.729691
8648.437500	-108.111397
8671.875000	-107.175201
8695.312500	-104.889732
8718.750000	-104.246101
8742.187500	-104.393608
8765.625000	-105.025436
8789.062500	-105.693817
8812.500000	-105.430969
8835.937500	-105.297379
8859.375000	-104.641022
8882.812500	-100.725334
8906.250000	-99.405045
8929.687500	-104.336731
8953.125000	-108.487038
8976.562500	-105.416519
9000.000000	-100.532669
9023.437500	-97.144402
9046.875000	-99.503342
9070.312500	-102.340515
9093.750000	-101.187538
9117.187500	-101.138489
9140.625000	-104.204033
9164.062500	-107.427597
9187.500000	-107.349632
9210.937500	-108.179268
9234.375000	-109.211136
9257.812500	-110.864693
9281.250000	-111.178558
9304.687500	-110.055786
9328.125000	-109.394287
9351.562500	-107.747330
9375.000000	-103.724747
9398.437500	-103.181252
9421.875000	-102.585548
9445.312500	-103.372429
9468.750000	-105.269615
9492.187500	-107.287262
9515.625000	-108.012306
9539.062500	-109.294235
9562.500000	-109.615471
9585.937500	-109.465431
9609.375000	-108.076210
9632.812500	-108.816109
9656.250000	-110.189949
9679.687500	-107.770645
9703.125000	-105.600899
9726.562500	-108.002777
9750.000000	-111.302109
9773.437500	-111.969940
9796.875000	-111.263435
9820.312500	-112.304970
9843.750000	-111.732582
9867.187500	-111.779037
9890.625000	-113.032593
9914.062500	-113.046173
9937.500000	-111.563919
9960.937500	-109.078239
9984.375000	-107.932465
10007.812500	-105.256004
10031.250000	-101.436516
10054.687500	-102.391861
10078.125000	-102.943542
10101.562500	-104.128487
10125.000000	-106.121223
10148.437500	-108.052444
10171.875000	-108.574234
10195.312500	-108.492584
10218.750000	-108.765343
10242.187500	-109.644897
10265.625000	-107.876205
10289.062500	-105.200073
10312.500000	-106.191322
10335.937500	-107.511742
10359.375000	-107.704170
10382.812500	-108.662453
10406.250000	-103.820709
10429.687500	-101.721001
10453.125000	-104.529816
10476.562500	-107.598511
10500.000000	-106.852135
10523.437500	-105.814575
10546.875000	-106.556038
10570.312500	-108.365219
10593.750000	-111.618423
10617.187500	-113.994400
10640.625000	-115.440933
10664.062500	-116.613991
10687.500000	-116.626297
10710.937500	-114.831215
10734.375000	-113.932625
10757.812500	-114.134659
10781.250000	-114.930550
10804.687500	-115.035744
10828.125000	-112.430077
10851.562500	-114.463783
10875.000000	-115.211166
10898.437500	-112.779655
10921.875000	-112.768753
10945.312500	-110.545670
10968.750000	-110.779175
10992.187500	-113.114883
11015.625000	-114.070511
11039.062500	-114.239594
11062.500000	-115.177383
11085.937500	-115.245132
11109.375000	-112.876945
11132.812500	-113.281853
11156.250000	-114.080055
11179.687500	-112.532951
11203.125000	-111.414734
11226.562500	-111.472679
11250.000000	-111.770813
11273.437500	-114.483101
11296.875000	-117.505173
11320.312500	-115.977020
11343.750000	-114.110107
11367.187500	-114.763512
11390.625000	-115.049568
11414.062500	-113.831978
11437.500000	-111.735504
11460.937500	-113.419022
11484.375000	-115.216644
11507.812500	-114.266212
11531.250000	-115.195419
11554.687500	-115.733139
11578.125000	-115.193993
11601.562500	-115.860367
11625.000000	-116.116539
11648.437500	-115.488396
11671.875000	-114.358353
11695.312500	-113.502083
11718.750000	-113.689690
11742.187500	-112.717834
11765.625000	-112.484505
11789.062500	-111.475548
11812.500000	-114.183792
11835.937500	-116.439644
11859.375000	-116.087837
11882.812500	-113.503136
11906.250000	-111.369125
11929.687500	-113.349419
11953.125000	-116.103149
11976.562500	-115.823654
12000.000000	-114.329453
12023.437500	-116.372253
12046.875000	-115.799416
12070.312500	-114.828537
12093.750000	-114.864349
12117.187500	-115.575287
12140.625000	-115.985062
12164.062500	-116.035095
12187.500000	-115.562881
12210.937500	-114.787773
12234.375000	-111.963722
12257.812500	-110.487862
12281.250000	-110.907654
12304.687500	-108.071434
12328.125000	-110.693939
12351.562500	-113.974655
12375.000000	-112.358910
12398.437500	-114.414787
12421.875000	-116.752975
12445.312500	-116.615211
12468.750000	-116.725777
12492.187500	-117.155701
12515.625000	-117.105240
12539.062500	-117.053154
12562.500000	-116.578568
12585.937500	-116.237427
12609.375000	-115.970558
12632.812500	-115.457657
12656.250000	-115.870689
12679.687500	-115.571068
12703.125000	-115.541847
12726.562500	-115.210060
12750.000000	-115.140633
12773.437500	-114.878647
12796.875000	-115.700562
12820.312500	-115.713638
12843.750000	-116.654068
12867.187500	-117.026169
12890.625000	-117.025665
12914.062500	-117.398178
12937.500000	-117.434769
12960.937500	-117.036484
12984.375000	-117.607491
13007.812500	-117.301750
13031.250000	-117.702797
13054.687500	-118.248070
13078.125000	-117.903519
13101.562500	-117.931526
13125.000000	-117.147942
13148.437500	-116.942757
13171.875000	-116.946518
13195.312500	-116.122459
13218.750000	-116.315422
13242.187500	-116.567688
13265.625000	-116.977692
13289.062500	-117.008224
13312.500000	-116.595688
13335.937500	-115.607094
13359.375000	-114.468910
13382.812500	-114.238197
13406.250000	-113.468872
13429.687500	-112.285965
13453.125000	-112.183914
13476.562500	-112.986450
13500.000000	-112.587074
13523.437500	-111.561295
13546.875000	-114.340530
13570.312500	-117.285690
13593.750000	-117.324699
13617.187500	-115.958138
13640.625000	-115.983063
13664.062500	-115.552032
13687.500000	-115.495094
13710.937500	-116.041534
13734.375000	-116.954063
13757.812500	-117.579193
13781.250000	-117.953117
13804.687500	-118.324959
13828.125000	-118.508904
13851.562500	-117.994385
13875.000000	-118.353477
13898.437500	-117.371613
13921.875000	-115.982895
13945.312500	-117.130692
13968.750000	-118.145203
13992.187500	-118.814949
14015.625000	-118.023285
14039.062500	-117.444427
14062.500000	-117.592148
14085.937500	-114.858299
14109.375000	-115.003899
14132.812500	-117.690659
14156.250000	-118.259750
14179.687500	-118.905884
14203.125000	-119.153748
14226.562500	-119.508224
14250.000000	-119.560463
14273.437500	-119.668739
14296.875000	-119.846863
14320.312500	-119.825996
14343.750000	-119.587418
14367.187500	-119.170738
14390.625000	-119.066544
14414.062500	-119.303864
14437.500000	-119.560043
14460.937500	-119.860535
14484.375000	-120.103073
14507.812500	-120.055038
14531.250000	-119.940788
14554.687500	-120.241791
14578.125000	-120.026627
14601.562500	-119.972717
14625.000000	-119.950661
14648.437500	-118.392464
14671.875000	-115.504158
14695.312500	-115.719002
14718.750000	-116.646584
14742.187500	-116.174683
14765.625000	-116.996849
14789.062500	-118.831024
14812.500000	-119.981491
14835.937500	-120.199585
14859.375000	-120.125420
14882.812500	-118.499580
14906.250000	-118.101379
14929.687500	-119.657768
14953.125000	-120.033348
14976.562500	-119.698807
15000.000000	-118.785431
15023.437500	-119.644539
15046.875000	-120.174522
15070.312500	-119.970657
15093.750000	-120.439835
15117.187500	-120.820267
15140.625000	-120.690712
15164.062500	-120.475021
15187.500000	-120.324654
15210.937500	-120.424232
15234.375000	-120.547600
15257.812500	-120.257439
15281.250000	-120.119667
15304.687500	-120.341949
15328.125000	-120.895226
15351.562500	-121.127159
15375.000000	-120.923935
15398.437500	-120.734810
15421.875000	-120.618690
15445.312500	-120.529312
15468.750000	-120.112511
15492.187500	-120.222260
15515.625000	-120.858589
15539.062500	-120.832054
15562.500000	-120.883598
15585.937500	-121.265396
15609.375000	-121.401039
15632.812500	-121.359131
15656.250000	-121.054008
15679.687500	-120.619102
15703.125000	-120.526184
15726.562500	-120.385841
15750.000000	-120.550514
15773.437500	-120.632996
15796.875000	-120.762596
15820.312500	-121.031250
15843.750000	-121.191330
15867.187500	-121.377762
15890.625000	-120.965973
15914.062500	-120.014809
15937.500000	-118.560089
15960.937500	-115.438713
15984.375000	-116.063889
16007.812500	-119.099190
16031.250000	-120.487564
16054.687500	-120.950188
16078.125000	-121.431152
16101.562500	-121.345772
16125.000000	-121.549454
16148.437500	-122.087326
16171.875000	-122.051498
16195.312500	-122.046867
16218.750000	-121.919533
16242.187500	-121.772232
16265.625000	-121.650635
16289.062500	-121.665077
16312.500000	-121.812088
16335.937500	-121.833229
16359.375000	-121.945381
16382.812500	-121.933388
16406.250000	-121.787682
16429.687500	-121.907692
16453.125000	-122.001198
16476.562500	-121.758934
16500.000000	-120.673325
16523.437500	-121.470398
16546.875000	-121.880356
16570.312500	-121.901321
16593.750000	-121.988007
16617.187500	-122.185005
16640.625000	-122.107101
16664.062500	-122.121040
16687.500000	-122.116356
16710.937500	-122.160286
16734.375000	-122.358009
16757.812500	-122.196587
16781.250000	-121.886169
16804.687500	-121.420189
16828.125000	-121.033310
16851.562500	-121.256790
16875.000000	-121.661934
16898.437500	-121.541809
16921.875000	-121.396515
16945.312500	-121.742661
16968.750000	-122.089455
16992.187500	-121.990601
17015.625000	-121.777161
17039.062500	-122.081398
17062.500000	-122.417328
17085.937500	-122.571587
17109.375000	-122.607262
17132.812500	-122.610512
17156.250000	-122.591187
17179.687500	-122.581223
17203.125000	-121.961792
17226.562500	-121.249199
17250.000000	-121.925865
17273.437500	-122.419815
17296.875000	-122.221634
17320.312500	-122.469582
17343.750000	-122.686241
17367.187500	-122.717323
17390.625000	-122.660126
17414.062500	-122.650192
17437.500000	-122.686447
17460.937500	-122.712273
17484.375000	-122.804588
17507.812500	-122.783867
17531.250000	-122.881638
17554.687500	-122.804489
17578.125000	-122.722786
17601.562500	-122.738007
17625.000000	-122.877220
17648.437500	-122.992058
17671.875000	-122.847206
17695.312500	-122.710243
17718.750000	-122.749161
17742.187500	-122.726959
17765.625000	-122.809883
17789.062500	-122.760643
17812.500000	-122.761360
17835.937500	-122.986877
17859.375000	-122.898438
17882.812500	-122.896065
17906.250000	-122.929680
17929.687500	-122.925430
17953.125000	-122.820747
17976.562500	-122.315575
18000.000000	-121.080887
18023.437500	-122.345757
18046.875000	-122.911072
18070.312500	-122.935081
18093.750000	-122.870857
18117.187500	-122.969116
18140.625000	-123.002853
18164.062500	-122.993080
18187.500000	-122.879875
18210.937500	-122.975258
18234.375000	-123.042450
18257.812500	-122.953598
18281.250000	-122.956451
18304.687500	-123.121407
18328.125000	-123.164551
18351.562500	-123.106232
18375.000000	-123.017311
18398.437500	-122.940697
18421.875000	-122.911667
18445.312500	-122.857330
18468.750000	-122.919144
18492.187500	-122.978035
18515.625000	-122.951912
18539.062500	-122.569183
18562.500000	-122.350136
18585.937500	-122.176041
18609.375000	-122.386490
18632.812500	-122.492462
18656.250000	-122.629906
18679.687500	-122.733719
18703.125000	-122.934082
18726.562500	-122.908730
18750.000000	-122.996590
18773.437500	-123.043304
18796.875000	-122.846573
18820.312500	-122.638474
18843.750000	-122.512589
18867.187500	-122.272820
18890.625000	-122.192902
18914.062500	-122.253838
18937.500000	-122.180099
18960.937500	-122.121063
18984.375000	-121.983307
19007.812500	-121.607941
19031.250000	-121.205688
19054.687500	-120.713417
19078.125000	-119.264252
19101.562500	-116.549469
19125.000000	-113.539696
19148.437500	-111.145920
19171.875000	-109.836960
19195.312500	-108.480736
19218.750000	-107.353378
19242.187500	-107.913322
19265.625000	-109.446854
19289.062500	-110.072777
19312.500000	-110.736931
19335.937500	-111.676102
19359.375000	-112.658661
19382.812500	-113.082275
19406.250000	-113.373375
19429.687500	-114.616318
19453.125000	-116.252853
19476.562500	-117.387146
19500.000000	-118.011040
19523.437500	-119.256020
19546.875000	-120.017136
19570.312500	-120.302216
19593.750000	-120.306602
19617.187500	-120.296890
19640.625000	-120.261223
19664.062500	-120.330284
19687.500000	-120.514542
19710.937500	-120.556000
19734.375000	-120.713737
19757.812500	-120.935890
19781.250000	-121.302483
19804.687500	-121.746140
19828.125000	-121.505615
19851.562500	-121.632919
19875.000000	-122.147652
19898.437500	-122.643929
19921.875000	-122.740036
19945.312500	-122.515533
19968.750000	-122.491318
19992.187500	-122.696342
20015.625000	-122.591164
20039.062500	-122.385406
20062.500000	-122.167068
20085.937500	-122.283005
20109.375000	-119.892906
20132.812500	-115.762970
20156.250000	-118.905678
20179.687500	-121.754372
20203.125000	-121.854774
20226.562500	-121.726852
20250.000000	-121.438362
20273.437500	-121.637238
20296.875000	-121.863586
20320.312500	-121.879333
20343.750000	-121.833397
20367.187500	-121.786987
20390.625000	-121.989349
20414.062500	-122.086273
20437.500000	-122.132851
20460.937500	-122.134727
20484.375000	-122.039001
20507.812500	-122.086174
20531.250000	-122.152306
20554.687500	-122.159607
20578.125000	-122.257820
20601.562500	-122.482857
20625.000000	-122.646812
20648.437500	-122.735466
20671.875000	-122.744026
20695.312500	-122.840393
20718.750000	-122.963829
20742.187500	-123.033501
20765.625000	-123.216164
20789.062500	-123.227310
20812.500000	-123.240997
20835.937500	-123.237938
20859.375000	-123.262398
20882.812500	-123.342346
20906.250000	-123.368828
20929.687500	-123.357697
20953.125000	-123.399063
20976.562500	-122.850395
21000.000000	-121.817619
21023.437500	-122.519547
21046.875000	-122.776855
21070.312500	-122.963799
21093.750000	-123.166016
21117.187500	-123.078697
21140.625000	-123.012352
21164.062500	-123.072792
21187.500000	-123.283936
21210.937500	-123.458305
21234.375000	-123.382355
21257.812500	-123.353058
21281.250000	-123.398438
21304.687500	-123.477776
21328.125000	-123.520432
21351.562500	-123.521011
21375.000000	-123.466995
21398.437500	-123.421379
21421.875000	-123.415314
21445.312500	-123.430740
21468.750000	-123.392761
21492.187500	-123.430038
21515.625000	-123.366440
21539.062500	-123.367126
21562.500000	-123.446602
21585.937500	-123.409912
21609.375000	-123.428520
21632.812500	-123.335350
21656.250000	-123.351799
21679.687500	-123.333046
21703.125000	-123.293777
21726.562500	-123.288055
21750.000000	-123.429588
21773.437500	-123.438332
21796.875000	-123.382195
21820.312500	-123.344666
21843.750000	-123.405342
21867.187500	-123.424278
21890.625000	-123.362511
21914.062500	-123.451836
21937.500000	-123.456558
21960.937500	-123.469940
21984.375000	-123.383980
22007.812500	-123.334846
22031.250000	-123.311539
22054.687500	-123.379280
22078.125000	-123.394722
22101.562500	-123.349236
22125.000000	-123.114708
22148.437500	-122.853477
22171.875000	-122.750626
22195.312500	-122.712830
22218.750000	-122.523712
22242.187500	-122.405159
22265.625000	-122.306732
22289.062500	-122.384682
22312.500000	-122.293594
22335.937500	-122.390030
22359.375000	-122.376053
22382.812500	-122.206917
22406.250000	-122.332649
22429.687500	-122.393494
22453.125000	-122.465004
22476.562500	-122.334366
22500.000000	-121.883331
22523.437500	-122.331070
22546.875000	-122.484138
22570.312500	-122.658333
22593.750000	-122.710312
22617.187500	-122.624199
22640.625000	-122.549393
22664.062500	-122.621521
22687.500000	-122.716896
22710.937500	-122.565056
22734.375000	-122.396652
22757.812500	-122.164879
22781.250000	-122.056473
22804.687500	-122.089371
22828.125000	-122.129333
22851.562500	-122.129967
22875.000000	-122.079872
22898.437500	-122.106148
22921.875000	-122.249115
22945.312500	-122.424721
22968.750000	-122.397209
22992.187500	-122.357010
23015.625000	-122.652916
23039.062500	-122.839279
23062.500000	-122.854797
23085.937500	-122.793213
23109.375000	-122.828117
23132.812500	-122.936615
23156.250000	-123.229347
23179.687500	-123.171265
23203.125000	-123.213821
23226.562500	-123.348404
23250.000000	-123.353470
23273.437500	-123.313881
23296.875000	-123.340836
23320.312500	-123.265549
23343.750000	-123.213448
23367.187500	-123.192810
23390.625000	-123.076050
23414.062500	-123.020805
23437.500000	-123.074287
23460.937500	-123.120018
23484.375000	-123.105415
23507.812500	-123.049179
23531.250000	-123.112671
23554.687500	-123.227531
23578.125000	-123.245377
23601.562500	-123.414833
23625.000000	-123.434906
23648.437500	-123.450584
23671.875000	-123.493919
23695.312500	-123.509354
23718.750000	-123.585991
23742.187500	-123.711380
23765.625000	-123.779228
23789.062500	-123.756264
23812.500000	-123.741539
23835.937500	-123.729218
23859.375000	-123.661415
23882.812500	-123.718956
23906.250000	-123.760704
23929.687500	-123.754524
23953.125000	-123.799828
23976.562500	-123.655685
24000.000000	-123.415482
24023.437500	-123.717361
24046.875000	-123.897552
24070.312500	-123.927307
24093.750000	-123.943893
24117.187500	-123.853256
24140.625000	-123.930328
24164.062500	-123.942513
24187.500000	-123.873985
24210.937500	-123.863274
24234.375000	-123.855835
24257.812500	-123.847542
24281.250000	-123.926872
24304.687500	-123.932526
24328.125000	-123.924294
24351.562500	-123.850685
24375.000000	-123.832451
24398.437500	-123.905640
24421.875000	-123.972481
24445.312500	-123.828239
24468.750000	-123.871231
24492.187500	-123.869995
24515.625000	-123.887848
24539.062500	-123.973473
24562.500000	-123.917618
24585.937500	-123.905922
24609.375000	-123.874748
24632.812500	-123.920410
24656.250000	-123.972702
24679.687500	-124.017418
24703.125000	-123.987503
24726.562500	-123.926582
24750.000000	-123.929749
24773.437500	-123.979202
24796.875000	-123.970146
24820.312500	-123.938171
24843.750000	-124.005127
24867.187500	-124.004333
24890.625000	-123.927589
24914.062500	-123.997566
24937.500000	-123.956070
24960.937500	-123.912338
24984.375000	-123.881805
25007.812500	-123.950249
25031.250000	-124.011986
25054.687500	-124.038567
25078.125000	-124.011261
25101.562500	-123.936852
25125.000000	-123.936089
25148.437500	-123.856537
25171.875000	-123.846512
25195.312500	-123.819382
25218.750000	-123.641357
25242.187500	-123.575600
25265.625000	-123.527184
25289.062500	-123.701080
25312.500000	-123.867210
25335.937500	-123.903473
25359.375000	-123.716217
25382.812500	-123.627563
25406.250000	-123.789261
25429.687500	-123.964333
25453.125000	-124.044380
25476.562500	-123.930382
25500.000000	-123.709831
25523.437500	-123.907875
25546.875000	-123.958366
25570.312500	-124.023392
25593.750000	-124.046860
25617.187500	-124.034538
25640.625000	-124.026749
25664.062500	-123.960175
25687.500000	-124.079346
25710.937500	-124.094574
25734.375000	-124.030220
25757.812500	-124.031898
25781.250000	-124.020386
25804.687500	-124.080246
25828.125000	-124.058556
25851.562500	-124.121796
25875.000000	-124.043251
25898.437500	-124.041618
25921.875000	-124.038055
25945.312500	-124.004745
25968.750000	-124.087418
25992.187500	-124.054024
26015.625000	-124.070503
26039.062500	-124.070587
26062.500000	-124.154205
26085.937500	-124.112480
26109.375000	-124.097694
26132.812500	-124.126846
26156.250000	-124.067017
26179.687500	-124.081779
26203.125000	-124.070992
26226.562500	-123.979713
26250.000000	-124.051086
26273.437500	-123.998024
26296.875000	-123.948921
26320.312500	-123.993217
26343.750000	-123.935753
26367.187500	-123.998512
26390.625000	-124.031021
26414.062500	-124.075172
26437.500000	-124.113892
26460.937500	-124.086334
26484.375000	-124.030922
26507.812500	-124.045403
26531.250000	-124.074226
26554.687500	-124.162277
26578.125000	-124.125175
26601.562500	-124.162521
26625.000000	-124.170158
26648.437500	-124.107635
26671.875000	-124.146637
26695.312500	-124.089439
26718.750000	-124.072853
26742.187500	-124.147896
26765.625000	-124.150520
26789.062500	-124.085968
26812.500000	-124.072609
26835.937500	-124.225182
26859.375000	-124.157852
26882.812500	-124.109825
26906.250000	-124.113983
26929.687500	-124.190331
26953.125000	-124.168533
26976.562500	-124.152649
27000.000000	-124.158173
27023.437500	-124.131233
27046.875000	-124.156448
27070.312500	-124.143639
27093.750000	-124.132515
27117.187500	-124.107391
27140.625000	-124.121338
27164.062500	-124.199142
27187.500000	-124.081543
27210.937500	-124.110893
27234.375000	-124.160751
27257.812500	-124.151695
27281.250000	-124.144379
27304.687500	-124.189224
27328.125000	-124.164474
27351.562500	-124.169907
27375.000000	-124.121346
27398.437500	-124.068886
27421.875000	-124.192619
27445.312500	-124.249199
27468.750000	-124.215965
27492.187500	-124.174072
27515.625000	-124.197128
27539.062500	-124.201622
27562.500000	-124.175461
27585.937500	-124.179260
27609.375000	-124.186760
27632.812500	-124.123627
27656.250000	-124.169060
27679.687500	-124.293404
27703.125000	-124.242538
27726.562500	-124.188087
27750.000000	-124.137825
27773.437500	-124.190475
27796.875000	-124.159760
27820.312500	-124.231865
27843.750000	-124.344643
27867.187500	-124.267723
27890.625000	-124.286560
27914.062500	-124.229469
27937.500000	-124.238174
27960.937500	-124.274536
27984.375000	-124.223320
28007.812500	-124.205513
28031.250000	-124.210793
28054.687500	-124.209488
28078.125000	-124.135345
28101.562500	-124.179398
28125.000000	-124.213371
28148.437500	-124.211548
28171.875000	-124.239510
28195.312500	-124.270462
28218.750000	-124.297112
28242.187500	-124.173187
28265.625000	-124.231018
28289.062500	-124.325233
28312.500000	-124.245911
28335.937500	-124.183350
28359.375000	-124.192551
28382.812500	-124.116722
28406.250000	-124.111702
28429.687500	-124.112663
28453.125000	-124.203255
28476.562500	-124.189415
28500.000000	-124.106171
28523.437500	-124.213387
28546.875000	-124.255875
28570.312500	-124.179169
28593.750000	-124.140999
28617.187500	-124.295242
28640.625000	-124.329247
28664.062500	-124.284286
28687.500000	-124.222328
28710.937500	-124.292336
28734.375000	-124.237755
28757.812500	-124.184891
28781.250000	-124.243599
28804.687500	-124.285095
28828.125000	-124.263542
28851.562500	-124.260155
28875.000000	-124.287994
28898.437500	-124.259781
28921.875000	-124.278099
28945.312500	-124.379822
28968.750000	-124.321785
28992.187500	-124.274788
29015.625000	-124.260147
29039.062500	-124.200417
29062.500000	-124.151848
29085.937500	-124.173576
29109.375000	-124.180695
29132.812500	-124.290985
29156.250000	-124.247322
29179.687500	-124.291237
29203.125000	-124.300407
29226.562500	-124.270592
29250.000000	-124.219086
29273.437500	-124.268044
29296.875000	-124.277550
29320.312500	-124.249893
29343.750000	-124.260216
29367.187500	-124.254341
29390.625000	-124.210625
29414.062500	-124.137955
29437.500000	-124.022560
29460.937500	-123.995857
29484.375000	-124.029701
29507.812500	-124.141891
29531.250000	-124.246872
29554.687500	-124.201996
29578.125000	-124.138161
29601.562500	-124.050499
29625.000000	-124.026825
29648.437500	-124.210854
29671.875000	-124.356506
29695.312500	-124.282700
29718.750000	-124.233620
29742.187500	-124.289391
29765.625000	-124.279709
29789.062500	-124.350632
29812.500000	-124.359406
29835.937500	-124.353287
29859.375000	-124.298874
29882.812500	-124.256340
29906.250000	-124.247719
29929.687500	-124.317329
29953.125000	-124.375038
29976.562500	-124.300278
30000.000000	-124.052200
30023.437500	-124.227036
30046.875000	-124.288589
30070.312500	-124.262474
30093.750000	-124.274986
30117.187500	-124.296204
30140.625000	-124.324829
30164.062500	-124.400330
30187.500000	-124.296127
30210.937500	-124.288605
30234.375000	-124.313286
30257.812500	-124.370262
30281.250000	-124.379547
30304.687500	-124.379753
30328.125000	-124.420761
30351.562500	-124.405815
30375.000000	-124.331200
30398.437500	-124.273994
30421.875000	-124.339554
30445.312500	-124.345512
30468.750000	-124.300102
30492.187500	-124.286110
30515.625000	-124.386360
30539.062500	-124.392189
30562.500000	-124.338531
30585.937500	-124.356384
30609.375000	-124.398026
30632.812500	-124.356682
30656.250000	-124.401184
30679.687500	-124.401604
30703.125000	-124.350182
30726.562500	-124.288567
30750.000000	-124.378220
30773.437500	-124.435982
30796.875000	-124.411354
30820.312500	-124.309944
30843.750000	-124.307678
30867.187500	-124.322418
30890.625000	-124.302956
30914.062500	-124.390366
30937.500000	-124.439629
30960.937500	-124.405663
30984.375000	-124.367874
31007.812500	-124.406494
31031.250000	-124.450966
31054.687500	-124.442505
31078.125000	-124.381218
31101.562500	-124.371498
31125.000000	-124.386391
31148.437500	-124.392670
31171.875000	-124.461266
31195.312500	-124.408585
31218.750000	-124.384499
31242.187500	-124.406189
31265.625000	-124.419830
31289.062500	-124.529732
31312.500000	-124.585686
31335.937500	-124.488327
31359.375000	-124.417831
31382.812500	-124.399551
31406.250000	-124.327721
31429.687500	-124.401894
31453.125000	-124.447701
31476.562500	-124.239502
31500.000000	-123.817680
31523.437500	-124.278175
31546.875000	-124.432610
31570.312500	-124.436508
31593.750000	-124.540886
31617.187500	-124.459427
31640.625000	-124.418213
31664.062500	-124.475883
31687.500000	-124.446587
31710.937500	-124.426491
31734.375000	-124.423004
31757.812500	-124.392761
31781.250000	-124.417313
31804.687500	-124.471443
31828.125000	-124.439896
31851.562500	-124.423393
31875.000000	-124.425621
31898.437500	-124.457237
31921.875000	-124.409966
31945.312500	-124.543396
31968.750000	-124.513199
31992.187500	-124.466972
32015.625000	-124.478065
32039.062500	-124.401962
32062.500000	-124.386284
32085.937500	-124.419144
32109.375000	-124.506340
32132.812500	-124.446404
32156.250000	-124.422997
32179.687500	-124.477661
32203.125000	-124.422897
32226.562500	-124.446960
32250.000000	-124.400841
32273.437500	-124.384094
32296.875000	-124.424644
32320.312500	-124.508629
32343.750000	-124.498489
32367.187500	-124.445732
32390.625000	-124.524017
32414.062500	-124.556404
32437.500000	-124.548943
32460.937500	-124.466560
32484.375000	-124.470177
32507.812500	-124.512299
32531.250000	-124.465775
32554.687500	-124.546844
32578.125000	-124.511292
32601.562500	-124.490303
32625.000000	-124.540428
32648.437500	-124.456230
32671.875000	-124.465988
32695.312500	-124.513481
32718.750000	-124.529388
32742.187500	-124.584610
32765.625000	-124.632423
32789.062500	-124.510475
32812.500000	-124.543571
32835.937500	-124.624741
32859.375000	-124.559654
32882.812500	-124.497192
32906.250000	-124.516769
32929.687500	-124.504669
32953.125000	-124.488998
32976.562500	-124.297043
33000.000000	-123.752785
33023.437500	-124.291191
33046.875000	-124.504204
33070.312500	-124.529877
33093.750000	-124.570076
33117.187500	-124.486061
33140.625000	-124.501724
33164.062500	-124.501297
33187.500000	-124.421272
33210.937500	-124.428185
33234.375000	-124.489418
33257.812500	-124.515869
33281.250000	-124.576874
33304.687500	-124.597549
33328.125000	-124.527565
33351.562500	-124.547340
33375.000000	-124.559486
33398.437500	-124.565796
33421.875000	-124.536171
33445.312500	-124.550201
33468.750000	-124.652634
33492.187500	-124.540230
33515.625000	-124.512543
33539.062500	-124.562958
33562.500000	-124.588539
33585.937500	-124.591270
33609.375000	-124.527275
33632.812500	-124.504921
33656.250000	-124.502769
33679.687500	-124.497452
33703.125000	-124.531128
33726.562500	-124.524284
33750.000000	-124.484764
33773.437500	-124.459282
33796.875000	-124.451538
33820.312500	-124.391006
33843.750000	-124.419113
33867.187500	-124.514946
33890.625000	-124.545471
33914.062500	-124.505630
33937.500000	-124.469025
33960.937500	-124.480377
33984.375000	-124.520058
34007.812500	-124.546600
34031.250000	-124.519165
34054.687500	-124.511909
34078.125000	-124.558914
34101.562500	-124.519890
34125.000000	-124.537338
34148.437500	-124.583557
34171.875000	-124.553429
34195.312500	-124.590500
34218.750000	-124.554962
34242.187500	-124.499474
34265.625000	-124.472191
34289.062500	-124.537384
34312.500000	-124.557762
34335.937500	-124.648521
34359.375000	-124.651871
34382.812500	-124.625763
34406.250000	-124.561897
34429.687500	-124.526611
34453.125000	-124.533653
34476.562500	-124.472176
34500.000000	-124.186279
34523.437500	-124.546913
34546.875000	-124.569801
34570.312500	-124.501060
34593.750000	-124.531662
34617.187500	-124.498444
34640.625000	-124.534294
34664.062500	-124.607536
34687.500000	-124.600159
34710.937500	-124.600006
34734.375000	-124.612892
34757.812500	-124.692787
34781.250000	-124.685509
34804.687500	-124.679085
34828.125000	-124.684425
34851.562500	-124.703384
34875.000000	-124.692734
34898.437500	-124.604408
34921.875000	-124.615410
34945.312500	-124.594734
34968.750000	-124.646500
34992.187500	-124.654350
35015.625000	-124.601303
35039.062500	-124.581520
35062.500000	-124.672966
35085.937500	-124.649933
35109.375000	-124.536232
35132.812500	-124.581406
35156.250000	-124.609703
35179.687500	-124.576462
35203.125000	-124.666756
35226.562500	-124.702354
35250.000000	-124.629433
35273.437500	-124.719406
35296.875000	-124.718155
35320.312500	-124.760780
35343.750000	-124.738388
35367.187500	-124.709084
35390.625000	-124.711525
35414.062500	-124.688148
35437.500000	-124.696686
35460.937500	-124.665291
35484.375000	-124.652260
35507.812500	-124.580299
35531.250000	-124.593529
35554.687500	-124.672646
35578.125000	-124.652214
35601.562500	-124.621025
35625.000000	-124.710869
35648.437500	-124.692184
35671.875000	-124.682236
35695.312500	-124.639320
35718.750000	-124.673279
35742.187500	-124.608948
35765.625000	-124.615517
35789.062500	-124.693993
35812.500000	-124.716896
35835.937500	-124.668365
35859.375000	-124.641968
35882.812500	-124.666847
35906.250000	-124.704430
35929.687500	-124.722961
35953.125000	-124.678833
35976.562500	-124.692596
36000.000000	-124.605003
36023.437500	-124.644897
36046.875000	-124.644440
36070.312500	-124.696533
36093.750000	-124.744247
36117.187500	-124.696571
36140.625000	-124.698059
36164.062500	-124.717064
36187.500000	-124.713982
36210.937500	-124.629463
36234.375000	-124.755684
36257.812500	-124.760262
36281.250000	-124.705788
36304.687500	-124.737617
36328.125000	-124.720306
36351.562500	-124.652176
36375.000000	-124.675560
36398.437500	-124.743668
36421.875000	-124.712288
36445.312500	-124.629608
36468.750000	-124.675301
36492.187500	-124.747528
36515.625000	-124.751434
36539.062500	-124.720001
36562.500000	-124.705032
36585.937500	-124.738007
36609.375000	-124.787956
36632.812500	-124.772942
36656.250000	-124.772377
36679.687500	-124.748718
36703.125000	-124.774338
36726.562500	-124.782471
36750.000000	-124.707870
36773.437500	-124.712158
36796.875000	-124.756248
36820.312500	-124.747276
36843.750000	-124.787407
36867.187500	-124.710419
36890.625000	-124.690399
36914.062500	-124.758652
36937.500000	-124.752655
36960.937500	-124.798721
36984.375000	-124.803726
37007.812500	-124.780792
37031.250000	-124.707809
37054.687500	-124.652115
37078.125000	-124.673271
37101.562500	-124.678162
37125.000000	-124.763451
37148.437500	-124.806450
37171.875000	-124.884407
37195.312500	-124.901421
37218.750000	-124.888435
37242.187500	-124.846565
37265.625000	-124.843727
37289.062500	-124.815834
37312.500000	-124.814903
37335.937500	-124.794746
37359.375000	-124.723221
37382.812500	-124.721970
37406.250000	-124.774712
37429.687500	-124.778732
37453.125000	-124.808762
37476.562500	-124.837578
37500.000000	-124.841797
37523.437500	-124.793968
37546.875000	-124.772804
37570.312500	-124.814240
37593.750000	-124.782967
37617.187500	-124.799065
37640.625000	-124.858376
37664.062500	-124.831551
37687.500000	-124.817024
37710.937500	-124.818695
37734.375000	-124.823593
37757.812500	-124.795700
37781.250000	-124.711121
37804.687500	-124.717766
37828.125000	-124.664551
37851.562500	-124.629837
37875.000000	-124.745934
37898.437500	-124.704147
37921.875000	-124.712372
37945.312500	-124.741516
37968.750000	-124.684814
37992.187500	-124.708939
38015.625000	-124.705856
38039.062500	-124.608414
38062.500000	-124.608421
38085.937500	-124.494644
38109.375000	-124.471413
38132.812500	-124.528954
38156.250000	-124.441711
38179.687500	-124.300957
38203.125000	-124.188843
38226.562500	-124.024887
38250.000000	-123.839409
38273.437500	-123.094818
38296.875000	-122.517181
38320.312500	-121.936180
38343.750000	-121.087410
38367.187500	-120.819023
38390.625000	-120.568863
38414.062500	-121.340744
38437.500000	-122.037300
38460.937500	-121.843536
38484.375000	-121.671333
38507.812500	-121.470222
38531.250000	-121.852051
38554.687500	-122.098495
38578.125000	-122.406639
38601.562500	-122.481064
38625.000000	-122.664299
38648.437500	-122.902313
38671.875000	-123.021179
38695.312500	-123.196007
38718.750000	-123.339302
38742.187500	-123.521019
38765.625000	-123.600533
38789.062500	-123.705078
38812.500000	-123.619301
38835.937500	-123.646378
38859.375000	-123.755081
38882.812500	-123.858398
38906.250000	-123.917160
38929.687500	-124.012299
38953.125000	-124.087151
38976.562500	-124.311775
39000.000000	-124.205391
39023.437500	-124.519920
39046.875000	-124.596497
39070.312500	-124.654991
39093.750000	-124.680801
39117.187500	-124.668343
39140.625000	-124.647903
39164.062500	-124.662209
39187.500000	-124.767662
39210.937500	-124.685051
39234.375000	-124.602303
39257.812500	-124.631393
39281.250000	-124.676445
39304.687500	-124.749695
39328.125000	-124.799881
39351.562500	-124.777885
39375.000000	-124.851639
39398.437500	-124.889091
39421.875000	-124.834679
39445.312500	-124.729858
39468.750000	-124.803169
39492.187500	-124.823158
39515.625000	-124.807434
39539.062500	-124.884331
39562.500000	-124.866508
39585.937500	-124.859268
39609.375000	-124.837387
39632.812500	-124.877838
39656.250000	-124.911026
39679.687500	-124.890335
39703.125000	-124.888924
39726.562500	-124.936714
39750.000000	-124.903282
39773.437500	-124.804420
39796.875000	-124.927139
39820.312500	-124.924339
39843.750000	-124.881218
39867.187500	-124.925911
39890.625000	-124.894066
39914.062500	-124.882019
39937.500000	-124.871727
39960.937500	-124.880432
39984.375000	-124.808472
40007.812500	-124.854042
40031.250000	-125.044777
40054.687500	-124.958214
40078.125000	-124.816689
40101.562500	-124.870293
40125.000000	-124.910286
40148.437500	-124.974594
40171.875000	-124.960800
40195.312500	-124.930374
40218.750000	-124.920692
40242.187500	-124.448891
40265.625000	-122.756538
40289.062500	-124.060249
40312.500000	-124.929970
40335.937500	-124.920128
40359.375000	-124.939873
40382.812500	-124.941284
40406.250000	-124.969482
40429.687500	-124.958931
40453.125000	-124.967896
40476.562500	-124.797310
40500.000000	-124.467552
40523.437500	-124.809822
40546.875000	-124.962105
40570.312500	-124.957588
40593.750000	-124.982071
40617.187500	-124.949516
40640.625000	-124.931953
40664.062500	-124.934837
40687.500000	-124.958763
40710.937500	-124.911331
40734.375000	-125.006210
40757.812500	-125.006561
40781.250000	-124.984985
40804.687500	-124.990929
40828.125000	-124.946854
40851.562500	-124.847389
40875.000000	-124.906792
40898.437500	-124.853317
40921.875000	-124.844467
40945.312500	-124.883980
40968.750000	-124.968590
40992.187500	-124.979027
41015.625000	-124.943375
41039.062500	-124.945847
41062.500000	-124.970261
41085.937500	-125.031929
41109.375000	-125.014351
41132.812500	-124.999084
41156.250000	-125.083054
41179.687500	-125.117371
41203.125000	-125.043587
41226.562500	-125.075485
41250.000000	-125.153259
41273.437500	-125.051025
41296.875000	-125.038261
41320.312500	-125.080444
41343.750000	-125.114105
41367.187500	-125.079086
41390.625000	-125.080742
41414.062500	-125.078659
41437.500000	-125.048050
41460.937500	-125.153534
41484.375000	-125.152878
41507.812500	-125.147217
41531.250000	-125.146500
41554.687500	-125.097343
41578.125000	-125.129868
41601.562500	-125.136002
41625.000000	-125.124245
41648.437500	-125.162842
41671.875000	-125.243095
41695.312500	-125.178345
41718.750000	-125.068031
41742.187500	-125.042313
41765.625000	-125.128906
41789.062500	-125.128769
41812.500000	-125.160492
41835.937500	-125.257004
41859.375000	-125.269753
41882.812500	-125.268456
41906.250000	-125.237869
41929.687500	-125.270966
41953.125000	-125.301476
41976.562500	-125.170891
42000.000000	-124.708984
42023.437500	-125.004311
42046.875000	-125.112640
42070.312500	-125.199638
42093.750000	-125.245163
42117.187500	-125.275436
42140.625000	-125.262619
42164.062500	-125.276321
42187.500000	-125.320122
42210.937500	-125.258247
42234.375000	-125.254173
42257.812500	-125.372086
42281.250000	-125.337700
42304.687500	-125.272514
42328.125000	-125.340744
42351.562500	-125.290558
42375.000000	-125.277267
42398.437500	-125.279549
42421.875000	-125.314430
42445.312500	-125.357353
42468.750000	-125.353935
42492.187500	-125.348358
42515.625000	-125.363144
42539.062500	-125.360222
42562.500000	-125.328941
42585.937500	-125.413895
42609.375000	-125.465317
42632.812500	-125.501686
42656.250000	-125.409309
42679.687500	-125.359970
42703.125000	-125.330742
42726.562500	-125.439308
42750.000000	-125.501106
42773.437500	-125.456841
42796.875000	-125.505928
42820.312500	-125.467705
42843.750000	-125.448456
42867.187500	-125.480652
42890.625000	-125.568481
42914.062500	-125.543564
42937.500000	-125.533150
42960.937500	-125.451454
42984.375000	-125.512436
43007.812500	-125.529053
43031.250000	-125.501579
43054.687500	-125.552658
43078.125000	-125.565598
43101.562500	-125.562401
43125.000000	-125.631836
43148.437500	-125.562477
43171.875000	-125.619644
43195.312500	-125.584503
43218.750000	-125.582420
43242.187500	-125.623405
43265.625000	-125.671387
43289.062500	-125.671661
43312.500000	-125.674995
43335.937500	-125.632286
43359.375000	-125.625107
43382.812500	-125.691055
43406.250000	-125.691994
43429.687500	-125.686440
43453.125000	-125.774345
43476.562500	-125.624207
43500.000000	-125.167343
43523.437500	-125.568710
43546.875000	-125.783165
43570.312500	-125.824814
43593.750000	-125.818550
43617.187500	-125.775581
43640.625000	-125.757423
43664.062500	-125.755417
43687.500000	-125.868065
43710.937500	-125.892311
43734.375000	-125.831543
43757.812500	-125.990379
43781.250000	-126.039978
43804.687500	-125.948456
43828.125000	-125.944786
43851.562500	-125.959129
43875.000000	-125.894402
43898.437500	-125.931183
43921.875000	-125.992195
43945.312500	-126.039505
43968.750000	-126.073792
43992.187500	-126.062721
44015.625000	-126.059219
44039.062500	-126.137238
44062.500000	-126.211716
44085.937500	-126.205605
44109.375000	-126.111794
44132.812500	-126.088371
44156.250000	-126.119049
44179.687500	-126.094856
44203.125000	-126.091904
44226.562500	-126.110672
44250.000000	-126.202446
44273.437500	-126.182785
44296.875000	-126.178459
44320.312500	-126.180000
44343.750000	-126.203148
44367.187500	-126.170425
44390.625000	-126.295555
44414.062500	-126.312912
44437.500000	-126.329521
44460.937500	-126.337204
44484.375000	-126.376892
44507.812500	-126.372131
44531.250000	-126.265572
44554.687500	-126.396004
44578.125000	-126.441376
44601.562500	-126.391449
44625.000000	-126.419464
44648.437500	-126.458366
44671.875000	-126.455666
44695.312500	-126.446480
44718.750000	-126.486275
44742.187500	-126.469383
44765.625000	-126.534996
44789.062500	-126.564484
44812.500000	-126.556549
44835.937500	-126.609421
44859.375000	-126.612946
44882.812500	-126.594383
44906.250000	-126.638115
44929.687500	-126.623276
44953.125000	-126.595703
44976.562500	-126.489540
45000.000000	-126.213120
45023.437500	-126.620453
45046.875000	-126.739967
45070.312500	-126.755249
45093.750000	-126.828926
45117.187500	-126.783478
45140.625000	-126.759804
45164.062500	-126.746414
45187.500000	-126.771324
45210.937500	-126.864197
45234.375000	-126.906509
45257.812500	-126.944427
45281.250000	-126.992424
45304.687500	-126.956940
45328.125000	-126.938255
45351.562500	-126.897011
45375.000000	-126.958366
45398.437500	-127.022926
45421.875000	-127.024979
45445.312500	-127.108337
45468.750000	-127.093719
45492.187500	-127.154930
45515.625000	-127.117470
45539.062500	-127.217613
45562.500000	-127.151657
45585.937500	-127.110977
45609.375000	-127.190620
45632.812500	-127.229057
45656.250000	-127.251961
45679.687500	-127.317116
45703.125000	-127.296921
45726.562500	-127.348099
45750.000000	-127.354965
45773.437500	-127.384567
45796.875000	-127.337585
45820.312500	-127.388763
45843.750000	-127.400711
45867.187500	-127.385025
45890.625000	-127.461624
45914.062500	-127.519783
45937.500000	-127.574692
45960.937500	-127.490791
45984.375000	-127.501244
46007.812500	-127.581879
46031.250000	-127.558975
46054.687500	-127.519051
46078.125000	-127.632202
46101.562500	-127.656952
46125.000000	-127.675781
46148.437500	-127.709396
46171.875000	-127.704376
46195.312500	-127.756172
46218.750000	-127.802582
46242.187500	-127.755356
46265.625000	-127.710884
46289.062500	-127.866402
46312.500000	-127.896957
46335.937500	-127.978394
46359.375000	-127.882935
46382.812500	-127.893181
46406.250000	-127.868462
46429.687500	-127.947380
46453.125000	-128.072464
46476.562500	-127.992981
46500.000000	-127.744629
46523.437500	-127.913849
46546.875000	-128.046829
46570.312500	-128.006668
46593.750000	-127.976974
46617.187500	-128.030350
46640.625000	-128.104172
46664.062500	-128.126358
46687.500000	-128.130692
46710.937500	-128.059174
46734.375000	-128.061096
46757.812500	-128.156204
46781.250000	-128.117233
46804.687500	-128.104904
46828.125000	-128.227036
46851.562500	-128.237381
46875.000000	-128.187851
46898.437500	-128.096176
46921.875000	-128.209763
46945.312500	-128.295837
46968.750000	-128.307678
46992.187500	-128.335602
47015.625000	-128.401520
47039.062500	-128.374771
47062.500000	-128.327301
47085.937500	-128.363098
47109.375000	-128.340393
47132.812500	-128.466431
47156.250000	-128.478363
47179.687500	-128.405869
47203.125000	-128.396606
47226.562500	-128.407700
47250.000000	-128.394592
47273.437500	-128.419189
47296.875000	-128.472885
47320.312500	-128.449142
47343.750000	-128.469803
47367.187500	-128.510117
47390.625000	-128.554474
47414.062500	-128.574310
47437.500000	-128.562866
47460.937500	-128.545990
47484.375000	-128.532272
47507.812500	-128.578918
47531.250000	-128.587357
47554.687500	-128.558319
47578.125000	-128.541565
47601.562500	-128.606430
47625.000000	-128.603500
47648.437500	-128.571014
47671.875000	-128.521530
47695.312500	-128.559265
47718.750000	-128.643066
47742.187500	-128.627808
47765.625000	-128.647278
47789.062500	-128.609360
47812.500000	-128.607468
47835.937500	-128.664108
47859.375000	-128.714142
47882.812500	-128.654144
47906.250000	-128.619125
47929.687500	-128.645813
47953.125000	-128.574677
47976.562500	-128.493744
