주파수 (Hz)	레벨 (dB)
23.437500	-94.498154
46.875000	-80.263985
70.312500	-66.124763
93.750000	-59.602932
117.187500	-53.928619
140.625000	-53.069485
164.062500	-55.891907
187.500000	-52.357906
210.937500	-52.429771
234.375000	-50.769985
257.812500	-45.698868
281.250000	-48.059978
304.687500	-49.943657
328.125000	-48.464066
351.562500	-48.319279
375.000000	-51.107456
398.437500	-49.631687
421.875000	-47.570583
445.312500	-46.175674
468.750000	-49.130608
492.187500	-52.059303
515.625000	-45.537060
539.062500	-46.176552
562.500000	-52.652905
585.937500	-52.058044
609.375000	-49.410603
632.812500	-48.414532
656.250000	-53.784546
679.687500	-50.200596
703.125000	-45.787323
726.562500	-50.792622
750.000000	-56.469540
773.437500	-53.176846
796.875000	-52.027676
820.312500	-51.722210
843.750000	-51.243999
867.187500	-56.008781
890.625000	-55.496387
914.062500	-61.345913
937.500000	-60.525955
960.937500	-62.040424
984.375000	-58.223434
1007.812500	-60.235565
1031.250000	-50.711761
1054.687500	-46.506397
1078.125000	-52.962605
1101.562500	-63.923172
1125.000000	-66.218323
1148.437500	-65.642693
1171.875000	-60.832088
1195.312500	-62.583038
1218.750000	-68.253334
1242.187500	-60.659271
1265.625000	-60.612991
1289.062500	-67.958092
1312.500000	-60.991455
1335.937500	-59.221558
1359.375000	-64.686951
1382.812500	-62.561424
1406.250000	-60.293106
1429.687500	-64.840607
1453.125000	-66.798660
1476.562500	-63.490643
1500.000000	-65.957863
1523.437500	-72.561966
1546.875000	-69.348427
1570.312500	-61.383575
1593.750000	-61.836308
1617.187500	-70.026489
1640.625000	-71.293243
1664.062500	-65.786156
1687.500000	-65.462624
1710.937500	-72.088730
1734.375000	-70.441628
1757.812500	-64.597145
1781.250000	-63.548920
1804.687500	-70.458206
1828.125000	-72.927811
1851.562500	-68.916466
1875.000000	-65.204353
1898.437500	-67.054054
1921.875000	-71.933762
1945.312500	-71.964012
1968.750000	-64.096733
1992.187500	-64.345100
2015.625000	-73.321396
2039.062500	-78.192009
2062.500000	-73.949913
2085.937500	-68.475159
2109.375000	-62.254112
2132.812500	-64.027214
2156.250000	-74.513046
2179.687500	-75.489288
2203.125000	-72.935234
2226.562500	-70.874550
2250.000000	-72.798958
2273.437500	-80.420456
2296.875000	-80.825623
2320.312500	-77.728119
2343.750000	-74.601997
2367.187500	-66.325310
2390.625000	-64.596008
2414.062500	-72.842964
2437.500000	-80.384300
2460.937500	-71.908592
2484.375000	-67.191933
2507.812500	-69.828812
2531.250000	-70.143547
2554.687500	-77.234894
2578.125000	-84.926376
2601.562500	-83.392624
2625.000000	-81.266029
2648.437500	-71.581375
2671.875000	-68.834038
2695.312500	-74.428421
2718.750000	-80.562775
2742.187500	-75.013710
2765.625000	-73.313118
2789.062500	-71.262352
2812.500000	-68.174179
2835.937500	-64.160278
2859.375000	-68.527878
2882.812500	-80.137352
2906.250000	-82.400925
2929.687500	-78.928871
2953.125000	-78.864098
2976.562500	-77.372284
3000.000000	-75.999573
3023.437500	-78.176529
3046.875000	-80.997185
3070.312500	-81.329750
3093.750000	-81.685173
3117.187500	-82.798004
3140.625000	-81.149254
3164.062500	-78.834496
3187.500000	-75.437370
3210.937500	-72.627937
3234.375000	-75.652771
3257.812500	-85.609901
3281.250000	-85.328461
3304.687500	-83.663269
3328.125000	-82.868309
3351.562500	-82.852203
3375.000000	-83.893074
3398.437500	-79.265434
3421.875000	-79.901405
3445.312500	-86.420601
3468.750000	-86.012527
3492.187500	-80.976280
3515.625000	-84.264938
3539.062500	-81.418686
3562.500000	-74.836021
3585.937500	-73.998184
3609.375000	-75.924950
3632.812500	-78.156342
3656.250000	-82.606735
3679.687500	-85.875763
3703.125000	-85.056847
3726.562500	-87.522491
3750.000000	-76.451607
3773.437500	-72.818390
3796.875000	-78.600365
3820.312500	-78.564468
3843.750000	-77.136742
3867.187500	-80.888435
3890.625000	-88.665894
3914.062500	-91.688171
3937.500000	-85.826523
3960.937500	-83.696205
3984.375000	-83.259850
4007.812500	-82.673119
4031.250000	-85.520920
4054.687500	-82.881516
4078.125000	-80.585632
4101.562500	-84.273987
4125.000000	-89.921471
4148.437500	-93.159386
4171.875000	-92.876816
4195.312500	-89.368286
4218.750000	-86.254959
4242.187500	-81.368172
4265.625000	-81.125473
4289.062500	-80.265709
4312.500000	-78.586739
4335.937500	-81.370468
4359.375000	-82.973022
4382.812500	-88.314842
4406.250000	-92.944267
4429.687500	-88.690277
4453.125000	-89.671219
4476.562500	-85.163986
4500.000000	-85.679680
4523.437500	-88.896149
4546.875000	-89.181892
4570.312500	-89.167900
4593.750000	-87.036461
4617.187500	-89.828308
4640.625000	-88.092636
4664.062500	-87.442024
4687.500000	-91.431030
4710.937500	-94.111725
4734.375000	-88.985535
4757.812500	-86.681221
4781.250000	-90.839226
4804.687500	-93.577896
4828.125000	-90.347183
4851.562500	-85.992943
4875.000000	-88.046242
4898.437500	-91.283752
4921.875000	-91.707771
4945.312500	-92.136337
4968.750000	-91.514832
4992.187500	-93.757469
5015.625000	-99.171326
5039.062500	-91.743301
5062.500000	-84.338867
5085.937500	-86.919167
5109.375000	-95.905975
5132.812500	-89.503242
5156.250000	-87.483330
5179.687500	-89.042831
5203.125000	-93.838310
5226.562500	-94.341301
5250.000000	-92.773880
5273.437500	-91.868134
5296.875000	-96.353905
5320.312500	-100.508430
5343.750000	-95.060776
5367.187500	-90.498482
5390.625000	-91.577812
5414.062500	-94.668449
5437.500000	-93.509987
5460.937500	-94.435753
5484.375000	-91.626610
5507.812500	-92.625435
5531.250000	-95.320091
5554.687500	-91.250618
5578.125000	-94.832359
5601.562500	-98.782318
5625.000000	-99.169609
5648.437500	-103.351189
5671.875000	-100.879463
5695.312500	-96.284561
5718.750000	-92.595451
5742.187500	-91.353485
5765.625000	-94.847687
5789.062500	-100.205154
5812.500000	-94.927818
5835.937500	-90.736946
5859.375000	-92.008965
5882.812500	-99.094070
5906.250000	-99.482697
5929.687500	-99.521790
5953.125000	-101.156387
5976.562500	-102.342941
6000.000000	-104.972778
6023.437500	-106.479240
6046.875000	-107.216774
6070.312500	-101.192688
6093.750000	-99.607605
6117.187500	-102.930878
6140.625000	-104.836472
6164.062500	-95.812424
6187.500000	-91.991554
6210.937500	-94.299759
6234.375000	-97.163719
6257.812500	-99.691887
6281.250000	-95.665031
6304.687500	-97.575912
6328.125000	-101.851952
6351.562500	-102.648247
6375.000000	-96.771805
6398.437500	-97.204514
6421.875000	-103.840599
6445.312500	-102.873672
6468.750000	-100.264656
6492.187500	-99.452240
6515.625000	-98.837257
6539.062500	-101.677834
6562.500000	-100.387253
6585.937500	-95.785141
6609.375000	-95.447937
6632.812500	-99.916573
6656.250000	-101.993317
6679.687500	-97.230598
6703.125000	-98.065506
6726.562500	-98.686996
6750.000000	-97.957741
6773.437500	-97.530609
6796.875000	-98.927948
6820.312500	-93.766151
6843.750000	-97.056625
6867.187500	-107.719048
6890.625000	-107.239449
6914.062500	-106.793205
6937.500000	-108.539513
6960.937500	-104.489120
6984.375000	-101.268204
7007.812500	-101.444473
7031.250000	-99.520035
7054.687500	-102.380882
7078.125000	-107.768372
7101.562500	-107.678833
7125.000000	-103.120934
7148.437500	-101.458534
7171.875000	-105.417953
7195.312500	-107.680641
7218.750000	-107.876198
7242.187500	-103.394440
7265.625000	-98.755585
7289.062500	-99.601562
7312.500000	-103.743149
7335.937500	-107.160309
7359.375000	-107.040428
7382.812500	-97.432411
7406.250000	-94.489746
7429.687500	-99.997849
7453.125000	-99.564034
7476.562500	-94.817238
7500.000000	-93.514175
7523.437500	-95.269958
7546.875000	-99.110092
7570.312500	-101.732811
7593.750000	-105.072716
7617.187500	-109.049942
7640.625000	-109.022804
7664.062500	-108.664230
7687.500000	-107.994980
7710.937500	-109.453087
7734.375000	-109.716553
7757.812500	-106.888367
7781.250000	-104.305893
7804.687500	-102.383720
7828.125000	-102.087593
7851.562500	-101.374741
7875.000000	-101.092834
7898.437500	-106.637573
7921.875000	-108.175697
7945.312500	-109.464470
7968.750000	-108.909973
7992.187500	-106.296455
8015.625000	-104.970779
8039.062500	-107.982170
8062.500000	-107.252113
8085.937500	-105.848511
8109.375000	-107.503380
8132.812500	-110.859833
8156.250000	-109.593185
8179.687500	-108.407837
8203.125000	-109.756508
8226.562500	-111.727036
8250.000000	-109.386200
8273.437500	-108.111382
8296.875000	-109.333115
8320.312500	-106.110245
8343.750000	-106.496712
8367.187500	-108.534782
8390.625000	-110.071999
8414.062500	-108.061668
8437.500000	-103.727852
8460.937500	-105.281326
8484.375000	-109.906624
8507.812500	-109.577332
8531.250000	-108.481499
8554.687500	-108.448143
8578.125000	-110.549751
8601.562500	-111.931976
8625.000000	-113.642441
8648.437500	-112.997978
8671.875000	-112.685570
8695.312500	-113.346626
8718.750000	-112.248192
8742.187500	-111.771408
8765.625000	-111.744171
8789.062500	-112.633492
8812.500000	-112.310143
8835.937500	-110.752777
8859.375000	-113.198151
8882.812500	-112.146111
8906.250000	-111.057961
8929.687500	-113.561699
8953.125000	-115.404633
8976.562500	-112.600067
9000.000000	-110.248741
9023.437500	-110.156281
9046.875000	-108.250282
9070.312500	-106.431488
9093.750000	-108.205200
9117.187500	-108.127808
9140.625000	-111.116325
9164.062500	-114.974052
9187.500000	-114.083244
9210.937500	-113.973724
9234.375000	-114.147896
9257.812500	-115.432350
9281.250000	-114.994621
9304.687500	-115.312775
9328.125000	-115.749924
9351.562500	-111.834358
9375.000000	-106.165001
9398.437500	-107.656227
9421.875000	-113.591476
9445.312500	-115.010269
9468.750000	-115.910103
9492.187500	-116.356560
9515.625000	-115.585327
9539.062500	-116.323952
9562.500000	-116.111839
9585.937500	-115.474457
9609.375000	-114.204697
9632.812500	-115.443314
9656.250000	-116.484253
9679.687500	-116.506386
9703.125000	-115.580772
9726.562500	-116.367577
9750.000000	-117.815521
9773.437500	-117.784264
9796.875000	-117.010666
9820.312500	-117.690697
9843.750000	-116.754509
9867.187500	-116.450912
9890.625000	-118.024780
9914.062500	-117.991058
9937.500000	-117.158829
9960.937500	-116.463913
9984.375000	-116.043159
10007.812500	-116.537888
10031.250000	-116.811996
10054.687500	-117.412872
10078.125000	-117.493279
10101.562500	-116.437683
10125.000000	-114.837044
10148.437500	-114.376244
10171.875000	-117.360825
10195.312500	-118.076836
10218.750000	-117.824730
10242.187500	-117.808952
10265.625000	-117.423149
10289.062500	-116.371658
10312.500000	-116.193977
10335.937500	-116.526428
10359.375000	-115.795570
10382.812500	-111.423645
10406.250000	-108.911583
10429.687500	-111.047485
10453.125000	-113.653854
10476.562500	-114.178329
10500.000000	-113.436676
10523.437500	-115.878159
10546.875000	-118.267647
10570.312500	-118.254791
10593.750000	-118.311653
10617.187500	-118.805222
10640.625000	-119.046333
10664.062500	-118.947685
10687.500000	-118.484528
10710.937500	-118.131683
10734.375000	-118.424393
10757.812500	-118.436333
10781.250000	-118.639893
10804.687500	-118.990410
10828.125000	-119.098106
10851.562500	-119.696426
10875.000000	-119.740143
10898.437500	-118.645752
10921.875000	-118.057045
10945.312500	-119.156532
10968.750000	-119.366684
10992.187500	-119.344643
11015.625000	-119.237350
11039.062500	-118.791641
11062.500000	-118.620331
11085.937500	-118.871346
11109.375000	-118.820168
11132.812500	-118.565582
11156.250000	-119.301811
11179.687500	-119.728462
11203.125000	-119.588142
11226.562500	-119.670044
11250.000000	-119.688454
11273.437500	-119.997551
11296.875000	-120.146622
11320.312500	-119.904617
11343.750000	-119.486542
11367.187500	-119.351761
11390.625000	-119.808556
11414.062500	-119.106544
11437.500000	-117.977478
11460.937500	-118.447525
11484.375000	-119.291626
11507.812500	-118.963486
11531.250000	-119.436966
11554.687500	-119.662178
11578.125000	-119.619987
11601.562500	-119.233398
11625.000000	-118.931732
11648.437500	-119.091034
11671.875000	-118.611031
11695.312500	-117.327377
11718.750000	-116.645966
11742.187500	-116.729935
11765.625000	-116.248978
11789.062500	-115.333031
11812.500000	-117.763573
11835.937500	-118.693703
11859.375000	-118.987358
11882.812500	-119.588745
11906.250000	-119.680679
11929.687500	-119.547966
11953.125000	-119.488396
11976.562500	-118.032219
12000.000000	-115.173470
12023.437500	-117.951988
12046.875000	-118.941971
12070.312500	-118.888634
12093.750000	-119.474655
12117.187500	-119.709541
12140.625000	-119.903809
12164.062500	-120.236160
12187.500000	-119.979866
12210.937500	-119.417816
12234.375000	-119.152252
12257.812500	-119.269699
12281.250000	-119.635284
12304.687500	-119.867226
12328.125000	-120.145287
12351.562500	-120.150078
12375.000000	-119.876831
12398.437500	-120.122917
12421.875000	-120.444695
12445.312500	-120.298996
12468.750000	-120.361092
12492.187500	-120.441803
12515.625000	-119.998161
12539.062500	-120.062134
12562.500000	-120.150932
12585.937500	-119.652275
12609.375000	-118.760078
12632.812500	-118.303505
12656.250000	-118.487633
12679.687500	-119.136726
12703.125000	-119.480034
12726.562500	-119.668106
12750.000000	-119.621346
12773.437500	-118.510071
12796.875000	-119.380295
12820.312500	-119.015305
12843.750000	-119.486809
12867.187500	-120.083862
12890.625000	-120.456230
12914.062500	-120.397575
12937.500000	-120.450989
12960.937500	-120.528664
12984.375000	-120.428688
13007.812500	-119.409027
13031.250000	-118.911537
13054.687500	-120.018867
13078.125000	-120.551094
13101.562500	-120.955849
13125.000000	-120.870399
13148.437500	-120.670570
13171.875000	-120.590370
13195.312500	-119.984024
13218.750000	-119.920364
13242.187500	-119.849022
13265.625000	-119.455841
13289.062500	-119.454781
13312.500000	-119.111488
13335.937500	-118.689560
13359.375000	-118.237160
13382.812500	-118.583275
13406.250000	-118.852242
13429.687500	-118.775192
13453.125000	-119.619537
13476.562500	-119.251266
13500.000000	-117.338348
13523.437500	-119.641296
13546.875000	-121.062065
13570.312500	-121.052193
13593.750000	-120.970634
13617.187500	-120.356651
13640.625000	-120.532349
13664.062500	-120.845863
13687.500000	-120.878731
13710.937500	-121.146278
13734.375000	-120.993507
13757.812500	-120.846115
13781.250000	-121.208160
13804.687500	-121.257057
13828.125000	-121.294914
13851.562500	-121.305855
13875.000000	-121.347519
13898.437500	-121.412170
13921.875000	-121.375679
13945.312500	-121.286934
13968.750000	-120.901436
13992.187500	-121.283432
14015.625000	-120.927025
14039.062500	-120.580063
14062.500000	-120.551208
14085.937500	-120.360542
14109.375000	-120.698975
14132.812500	-121.371025
14156.250000	-121.486443
14179.687500	-121.589607
14203.125000	-121.633148
14226.562500	-121.500511
14250.000000	-121.518539
14273.437500	-121.662270
14296.875000	-121.697899
14320.312500	-121.648964
14343.750000	-121.614212
14367.187500	-121.418709
14390.625000	-121.416046
14414.062500	-121.755569
14437.500000	-121.638283
14460.937500	-121.658325
14484.375000	-121.838081
14507.812500	-121.901421
14531.250000	-121.918877
14554.687500	-121.931160
14578.125000	-121.955338
14601.562500	-122.037956
14625.000000	-121.978249
14648.437500	-121.753235
14671.875000	-121.641113
14695.312500	-121.707977
14718.750000	-121.756737
14742.187500	-121.714554
14765.625000	-120.877548
14789.062500	-120.256760
14812.500000	-121.589485
14835.937500	-122.037628
14859.375000	-122.058823
14882.812500	-122.026588
14906.250000	-122.042145
14929.687500	-121.991600
14953.125000	-121.886024
14976.562500	-121.424500
15000.000000	-120.099243
15023.437500	-121.259872
15046.875000	-121.823135
15070.312500	-121.938187
15093.750000	-122.086975
15117.187500	-122.063744
15140.625000	-122.079857
15164.062500	-122.299286
15187.500000	-122.224434
15210.937500	-122.044479
15234.375000	-122.027374
15257.812500	-122.215706
15281.250000	-122.284134
15304.687500	-122.333092
15328.125000	-122.335510
15351.562500	-122.285576
15375.000000	-122.125931
15398.437500	-122.247826
15421.875000	-122.296051
15445.312500	-122.316544
15468.750000	-122.130264
15492.187500	-122.139793
15515.625000	-122.252663
15539.062500	-122.254601
15562.500000	-122.269684
15585.937500	-122.307648
15609.375000	-122.303261
15632.812500	-122.318504
15656.250000	-122.442131
15679.687500	-122.402657
15703.125000	-122.296295
15726.562500	-122.216385
15750.000000	-122.160126
15773.437500	-122.125435
15796.875000	-122.288422
15820.312500	-122.350517
15843.750000	-122.405251
15867.187500	-122.380844
15890.625000	-122.406593
15914.062500	-122.430984
15937.500000	-122.402580
15960.937500	-122.477066
15984.375000	-122.442619
16007.812500	-122.367096
16031.250000	-122.331001
16054.687500	-122.379784
16078.125000	-122.558044
16101.562500	-122.494530
16125.000000	-122.556587
16148.437500	-122.596565
16171.875000	-122.602112
16195.312500	-122.603241
16218.750000	-122.569061
16242.187500	-122.501236
16265.625000	-122.450310
16289.062500	-122.498405
16312.500000	-122.586594
16335.937500	-122.549301
16359.375000	-122.533821
16382.812500	-122.487289
16406.250000	-122.608551
16429.687500	-122.645645
16453.125000	-122.655525
16476.562500	-122.253464
16500.000000	-121.324165
16523.437500	-122.285278
16546.875000	-122.692810
16570.312500	-122.753242
16593.750000	-122.788910
16617.187500	-122.762138
16640.625000	-122.780609
16664.062500	-122.777756
16687.500000	-122.719185
16710.937500	-122.713051
16734.375000	-122.805130
16757.812500	-122.671822
16781.250000	-122.423416
16804.687500	-121.989708
16828.125000	-121.578110
16851.562500	-121.611237
16875.000000	-122.097275
16898.437500	-122.141014
16921.875000	-122.049911
16945.312500	-122.341164
16968.750000	-122.694954
16992.187500	-122.810631
17015.625000	-122.828911
17039.062500	-122.909866
17062.500000	-122.963898
17085.937500	-122.971275
17109.375000	-123.006538
17132.812500	-123.009850
17156.250000	-123.014259
17179.687500	-122.955513
17203.125000	-122.954048
17226.562500	-122.997345
17250.000000	-123.028885
17273.437500	-122.986305
17296.875000	-122.974487
17320.312500	-122.905800
17343.750000	-122.961075
17367.187500	-123.052826
17390.625000	-123.094894
17414.062500	-123.066193
17437.500000	-123.040558
17460.937500	-123.082260
17484.375000	-123.015694
17507.812500	-123.010994
17531.250000	-123.071075
17554.687500	-123.109695
17578.125000	-123.052956
17601.562500	-123.094696
17625.000000	-123.063835
17648.437500	-123.034683
17671.875000	-123.043427
17695.312500	-123.093117
17718.750000	-123.112350
17742.187500	-123.107124
17765.625000	-123.073090
17789.062500	-123.082085
17812.500000	-123.142075
17835.937500	-123.202713
17859.375000	-123.134750
17882.812500	-123.122437
17906.250000	-123.173271
17929.687500	-123.110115
17953.125000	-123.046539
17976.562500	-122.554382
18000.000000	-121.364647
18023.437500	-122.619614
18046.875000	-123.113113
18070.312500	-123.095917
18093.750000	-123.052841
18117.187500	-123.189056
18140.625000	-123.291412
18164.062500	-123.288658
18187.500000	-123.266563
18210.937500	-123.228188
18234.375000	-123.253746
18257.812500	-123.283432
18281.250000	-123.175125
18304.687500	-123.220718
18328.125000	-123.228577
18351.562500	-123.185120
18375.000000	-123.224945
18398.437500	-123.286964
18421.875000	-123.218033
18445.312500	-123.198616
18468.750000	-123.230591
18492.187500	-123.183350
18515.625000	-123.222893
18539.062500	-123.214592
18562.500000	-123.196815
18585.937500	-123.231041
18609.375000	-123.293739
18632.812500	-123.314865
18656.250000	-123.217941
18679.687500	-123.149055
18703.125000	-123.177567
18726.562500	-123.267967
18750.000000	-123.212852
18773.437500	-123.081810
18796.875000	-122.821129
18820.312500	-122.702377
18843.750000	-122.518623
18867.187500	-122.314186
18890.625000	-122.372780
18914.062500	-122.375931
18937.500000	-122.305908
18960.937500	-122.372917
18984.375000	-122.081512
19007.812500	-121.582184
19031.250000	-121.123314
19054.687500	-120.559456
19078.125000	-118.827332
19101.562500	-115.757225
19125.000000	-112.360863
19148.437500	-110.319626
19171.875000	-109.408051
19195.312500	-107.846458
19218.750000	-107.151863
19242.187500	-108.495407
19265.625000	-109.682220
19289.062500	-110.286552
19312.500000	-111.012230
19335.937500	-111.768791
19359.375000	-112.904617
19382.812500	-113.380150
19406.250000	-113.825188
19429.687500	-115.290253
19453.125000	-117.002525
19476.562500	-118.086662
19500.000000	-118.541550
19523.437500	-119.736359
19546.875000	-120.468536
19570.312500	-120.581451
19593.750000	-120.495117
19617.187500	-120.559387
19640.625000	-120.504288
19664.062500	-120.523613
19687.500000	-120.856300
19710.937500	-121.039886
19734.375000	-121.068443
19757.812500	-121.251450
19781.250000	-121.630493
19804.687500	-122.085938
19828.125000	-121.946541
19851.562500	-122.017563
19875.000000	-122.413361
19898.437500	-122.815514
19921.875000	-122.874229
19945.312500	-122.661911
19968.750000	-122.795563
19992.187500	-122.968010
20015.625000	-122.839691
20039.062500	-122.608177
20062.500000	-122.349640
20085.937500	-122.512199
20109.375000	-120.160675
20132.812500	-115.859474
20156.250000	-119.127121
20179.687500	-122.121071
20203.125000	-122.300011
20226.562500	-122.178741
20250.000000	-121.880913
20273.437500	-121.954361
20296.875000	-122.270134
20320.312500	-122.335388
20343.750000	-122.197121
20367.187500	-122.246529
20390.625000	-122.438004
20414.062500	-122.480576
20437.500000	-122.531807
20460.937500	-122.418854
20484.375000	-122.324547
20507.812500	-122.355652
20531.250000	-122.425041
20554.687500	-122.409180
20578.125000	-122.562180
20601.562500	-122.718323
20625.000000	-122.863014
20648.437500	-122.959305
20671.875000	-122.968353
20695.312500	-123.028770
20718.750000	-123.152733
20742.187500	-123.248634
20765.625000	-123.308403
20789.062500	-123.290176
20812.500000	-123.309769
20835.937500	-123.360794
20859.375000	-123.404495
20882.812500	-123.376633
20906.250000	-123.351105
20929.687500	-123.430885
20953.125000	-123.428757
20976.562500	-122.920509
21000.000000	-121.901245
21023.437500	-122.556305
21046.875000	-122.783287
21070.312500	-122.885696
21093.750000	-123.112999
21117.187500	-123.114861
21140.625000	-122.952705
21164.062500	-123.073097
21187.500000	-123.341492
21210.937500	-123.379463
21234.375000	-123.389877
21257.812500	-123.439713
21281.250000	-123.512085
21304.687500	-123.603302
21328.125000	-123.552711
21351.562500	-123.496384
21375.000000	-123.497345
21398.437500	-123.513725
21421.875000	-123.461464
21445.312500	-123.484924
21468.750000	-123.486557
21492.187500	-123.546562
21515.625000	-123.497513
21539.062500	-123.433601
21562.500000	-123.495049
21585.937500	-123.464821
21609.375000	-123.456360
21632.812500	-123.428833
21656.250000	-123.395683
21679.687500	-123.505806
21703.125000	-123.410027
21726.562500	-123.407967
21750.000000	-123.433037
21773.437500	-123.324150
21796.875000	-123.325394
21820.312500	-123.399071
21843.750000	-123.503548
21867.187500	-123.415009
21890.625000	-123.439987
21914.062500	-123.452644
21937.500000	-123.460655
21960.937500	-123.466507
21984.375000	-123.371483
22007.812500	-123.345749
22031.250000	-123.418472
22054.687500	-123.395546
22078.125000	-123.357521
22101.562500	-123.159157
22125.000000	-122.932205
22148.437500	-122.852257
22171.875000	-122.812790
22195.312500	-122.727150
22218.750000	-122.516434
22242.187500	-122.385086
22265.625000	-122.304634
22289.062500	-122.354660
22312.500000	-122.409813
22335.937500	-122.417274
22359.375000	-122.402191
22382.812500	-122.310692
22406.250000	-122.229294
22429.687500	-122.324821
22453.125000	-122.485725
22476.562500	-122.372421
22500.000000	-122.002373
22523.437500	-122.436485
22546.875000	-122.625053
22570.312500	-122.705177
22593.750000	-122.697578
22617.187500	-122.592896
22640.625000	-122.469772
22664.062500	-122.406921
22687.500000	-122.410912
22710.937500	-122.374474
22734.375000	-122.097923
22757.812500	-121.949356
22781.250000	-122.053848
22804.687500	-122.030624
22828.125000	-122.101189
22851.562500	-122.089211
22875.000000	-122.015961
22898.437500	-122.111794
22921.875000	-122.414055
22945.312500	-122.458290
22968.750000	-122.527283
22992.187500	-122.585114
23015.625000	-122.922020
23039.062500	-123.035378
23062.500000	-123.088051
23085.937500	-123.105530
23109.375000	-123.126137
23132.812500	-123.396210
23156.250000	-123.420403
23179.687500	-123.378006
23203.125000	-123.437332
23226.562500	-123.406853
23250.000000	-123.435150
23273.437500	-123.440163
23296.875000	-123.352097
23320.312500	-123.257904
23343.750000	-123.173485
23367.187500	-123.105759
23390.625000	-123.203964
23414.062500	-123.221207
23437.500000	-123.183266
23460.937500	-123.288483
23484.375000	-123.356079
23507.812500	-123.274933
23531.250000	-123.245804
23554.687500	-123.373474
23578.125000	-123.473747
23601.562500	-123.473137
23625.000000	-123.544243
23648.437500	-123.660904
23671.875000	-123.710243
23695.312500	-123.719696
23718.750000	-123.739906
23742.187500	-123.745575
23765.625000	-123.739578
23789.062500	-123.772858
23812.500000	-123.755836
23835.937500	-123.805756
23859.375000	-123.846733
23882.812500	-123.836853
23906.250000	-123.840858
23929.687500	-123.909851
23953.125000	-123.897285
23976.562500	-123.745644
24000.000000	-123.454262
24023.437500	-123.728874
24046.875000	-123.830215
24070.312500	-123.854225
24093.750000	-123.875381
24117.187500	-123.874481
24140.625000	-123.965523
24164.062500	-123.934013
24187.500000	-123.976524
24210.937500	-123.995186
24234.375000	-123.979958
24257.812500	-123.945129
24281.250000	-123.914139
24304.687500	-123.921989
24328.125000	-123.918480
24351.562500	-124.005775
24375.000000	-123.981865
24398.437500	-123.929253
24421.875000	-123.954422
24445.312500	-123.999680
24468.750000	-123.986732
24492.187500	-124.027824
24515.625000	-124.011185
24539.062500	-123.999046
24562.500000	-123.961281
24585.937500	-123.957420
24609.375000	-123.972015
24632.812500	-123.973694
24656.250000	-123.969940
24679.687500	-123.931206
24703.125000	-123.897858
24726.562500	-123.915054
24750.000000	-123.919724
24773.437500	-123.930283
24796.875000	-123.951599
24820.312500	-123.967117
24843.750000	-123.926994
24867.187500	-123.939011
24890.625000	-123.964439
24914.062500	-123.988319
24937.500000	-123.990570
24960.937500	-123.967445
24984.375000	-123.998711
25007.812500	-124.007622
25031.250000	-124.011971
25054.687500	-123.967674
25078.125000	-124.019257
25101.562500	-124.065834
25125.000000	-124.051888
25148.437500	-124.041832
25171.875000	-123.958717
25195.312500	-123.869499
25218.750000	-123.812546
25242.187500	-123.757195
25265.625000	-123.744377
25289.062500	-123.763710
25312.500000	-123.867729
25335.937500	-123.882301
25359.375000	-123.791374
25382.812500	-123.760880
25406.250000	-123.863831
25429.687500	-123.959724
25453.125000	-124.055824
25476.562500	-123.981934
25500.000000	-123.797897
25523.437500	-123.920387
25546.875000	-123.981262
25570.312500	-124.028214
25593.750000	-123.980453
25617.187500	-123.962135
25640.625000	-124.029060
25664.062500	-124.088470
25687.500000	-124.116081
25710.937500	-124.079575
25734.375000	-123.967476
25757.812500	-124.040901
25781.250000	-124.134422
25804.687500	-124.030533
25828.125000	-124.042595
25851.562500	-124.058098
25875.000000	-124.072006
25898.437500	-124.045517
25921.875000	-124.069794
25945.312500	-124.099258
25968.750000	-124.169273
25992.187500	-124.089859
26015.625000	-124.031342
26039.062500	-124.120270
26062.500000	-124.171631
26085.937500	-124.126259
26109.375000	-124.080734
26132.812500	-124.072899
26156.250000	-124.101166
26179.687500	-124.093994
26203.125000	-124.099846
26226.562500	-124.154564
26250.000000	-124.162857
26273.437500	-124.123085
26296.875000	-124.096931
26320.312500	-124.149597
26343.750000	-124.147705
26367.187500	-124.172585
26390.625000	-124.151276
26414.062500	-124.082596
26437.500000	-124.123726
26460.937500	-124.122795
26484.375000	-124.074226
26507.812500	-124.050629
26531.250000	-124.088196
26554.687500	-124.124588
26578.125000	-124.110664
26601.562500	-124.107826
26625.000000	-124.107285
26648.437500	-124.122200
26671.875000	-124.115273
26695.312500	-124.079613
26718.750000	-124.129303
26742.187500	-124.165268
26765.625000	-124.093422
26789.062500	-124.149506
26812.500000	-124.184738
26835.937500	-124.220749
26859.375000	-124.178246
26882.812500	-124.189240
26906.250000	-124.146751
26929.687500	-124.103516
26953.125000	-124.074409
26976.562500	-124.073242
27000.000000	-124.006332
27023.437500	-124.028740
27046.875000	-124.104355
27070.312500	-124.159714
27093.750000	-124.192177
27117.187500	-124.150734
27140.625000	-124.096138
27164.062500	-124.207680
27187.500000	-124.228149
27210.937500	-124.217392
27234.375000	-124.162560
27257.812500	-124.167038
27281.250000	-124.232330
27304.687500	-124.185295
27328.125000	-124.176689
27351.562500	-124.149277
27375.000000	-124.143127
27398.437500	-124.164185
27421.875000	-124.190834
27445.312500	-124.193336
27468.750000	-124.217857
27492.187500	-124.144142
27515.625000	-124.166344
27539.062500	-124.185966
27562.500000	-124.142227
27585.937500	-124.145424
27609.375000	-124.177795
27632.812500	-124.185715
27656.250000	-124.211853
27679.687500	-124.233025
27703.125000	-124.232773
27726.562500	-124.194275
27750.000000	-124.197258
27773.437500	-124.223900
27796.875000	-124.239517
27820.312500	-124.278923
27843.750000	-124.295815
27867.187500	-124.237350
27890.625000	-124.186485
27914.062500	-124.164566
27937.500000	-124.211082
27960.937500	-124.227287
27984.375000	-124.163292
28007.812500	-124.192451
28031.250000	-124.208191
28054.687500	-124.198257
28078.125000	-124.201012
28101.562500	-124.177292
28125.000000	-124.198494
28148.437500	-124.218796
28171.875000	-124.242050
28195.312500	-124.245247
28218.750000	-124.220917
28242.187500	-124.189651
28265.625000	-124.235870
28289.062500	-124.244743
28312.500000	-124.251892
28335.937500	-124.300064
28359.375000	-124.230118
28382.812500	-124.148331
28406.250000	-124.174324
28429.687500	-124.247116
28453.125000	-124.223007
28476.562500	-124.197525
28500.000000	-124.196785
28523.437500	-124.258545
28546.875000	-124.269653
28570.312500	-124.288673
28593.750000	-124.256859
28617.187500	-124.310631
28640.625000	-124.274734
28664.062500	-124.224716
28687.500000	-124.282104
28710.937500	-124.219727
28734.375000	-124.246323
28757.812500	-124.282326
28781.250000	-124.229393
28804.687500	-124.207947
28828.125000	-124.198921
28851.562500	-124.276604
28875.000000	-124.247337
28898.437500	-124.254662
28921.875000	-124.273949
28945.312500	-124.307335
28968.750000	-124.266052
28992.187500	-124.258415
29015.625000	-124.272614
29039.062500	-124.319237
29062.500000	-124.337181
29085.937500	-124.251068
29109.375000	-124.242920
29132.812500	-124.307648
29156.250000	-124.254135
29179.687500	-124.249390
29203.125000	-124.271263
29226.562500	-124.248329
29250.000000	-124.285416
29273.437500	-124.278000
29296.875000	-124.258324
29320.312500	-124.262924
29343.750000	-124.289162
29367.187500	-124.316376
29390.625000	-124.267326
29414.062500	-124.134361
29437.500000	-124.008018
29460.937500	-123.979599
29484.375000	-124.066643
29507.812500	-124.205078
29531.250000	-124.242569
29554.687500	-124.233337
29578.125000	-124.116898
29601.562500	-124.054977
29625.000000	-124.069580
29648.437500	-124.125084
29671.875000	-124.248184
29695.312500	-124.279327
29718.750000	-124.309570
29742.187500	-124.357330
29765.625000	-124.304398
29789.062500	-124.320526
29812.500000	-124.405579
29835.937500	-124.348564
29859.375000	-124.260773
29882.812500	-124.323837
29906.250000	-124.376778
29929.687500	-124.422913
29953.125000	-124.388062
29976.562500	-124.214645
30000.000000	-123.993767
30023.437500	-124.335342
30046.875000	-124.335030
30070.312500	-124.305382
30093.750000	-124.363724
30117.187500	-124.330368
30140.625000	-124.328346
30164.062500	-124.284500
30187.500000	-124.286415
30210.937500	-124.288864
30234.375000	-124.347992
30257.812500	-124.330490
30281.250000	-124.362785
30304.687500	-124.382576
30328.125000	-124.319923
30351.562500	-124.356018
30375.000000	-124.408173
30398.437500	-124.453407
30421.875000	-124.381561
30445.312500	-124.293846
30468.750000	-124.317230
30492.187500	-124.362091
30515.625000	-124.362259
30539.062500	-124.312904
30562.500000	-124.344749
30585.937500	-124.357903
30609.375000	-124.355743
30632.812500	-124.374214
30656.250000	-124.398567
30679.687500	-124.375099
30703.125000	-124.357201
30726.562500	-124.312492
30750.000000	-124.374039
30773.437500	-124.418831
30796.875000	-124.384827
30820.312500	-124.389748
30843.750000	-124.388138
30867.187500	-124.398903
30890.625000	-124.432625
30914.062500	-124.443245
30937.500000	-124.415779
30960.937500	-124.404030
30984.375000	-124.347687
31007.812500	-124.351234
31031.250000	-124.441147
31054.687500	-124.474342
31078.125000	-124.460701
31101.562500	-124.385887
31125.000000	-124.378433
31148.437500	-124.373512
31171.875000	-124.339996
31195.312500	-124.426727
31218.750000	-124.441681
31242.187500	-124.403885
31265.625000	-124.465561
31289.062500	-124.385330
31312.500000	-124.360413
31335.937500	-124.450111
31359.375000	-124.444717
31382.812500	-124.454201
31406.250000	-124.397362
31429.687500	-124.365555
31453.125000	-124.372589
31476.562500	-124.286888
31500.000000	-123.825462
31523.437500	-124.255356
31546.875000	-124.436836
31570.312500	-124.470718
31593.750000	-124.416687
31617.187500	-124.434143
31640.625000	-124.423752
31664.062500	-124.426781
31687.500000	-124.459984
31710.937500	-124.474838
31734.375000	-124.530060
31757.812500	-124.521713
31781.250000	-124.474403
31804.687500	-124.432724
31828.125000	-124.431160
31851.562500	-124.482933
31875.000000	-124.452301
31898.437500	-124.502220
31921.875000	-124.472420
31945.312500	-124.418365
31968.750000	-124.419167
31992.187500	-124.435112
32015.625000	-124.464691
32039.062500	-124.474861
32062.500000	-124.531281
32085.937500	-124.519173
32109.375000	-124.503441
32132.812500	-124.523285
32156.250000	-124.531464
32179.687500	-124.445549
32203.125000	-124.478630
32226.562500	-124.484863
32250.000000	-124.529091
32273.437500	-124.419708
32296.875000	-124.402390
32320.312500	-124.514069
32343.750000	-124.573570
32367.187500	-124.492157
32390.625000	-124.523300
32414.062500	-124.535965
32437.500000	-124.533836
32460.937500	-124.479370
32484.375000	-124.447304
32507.812500	-124.497238
32531.250000	-124.529228
32554.687500	-124.466896
32578.125000	-124.491051
32601.562500	-124.460457
32625.000000	-124.466866
32648.437500	-124.508629
32671.875000	-124.542259
32695.312500	-124.540131
32718.750000	-124.463844
32742.187500	-124.482384
32765.625000	-124.563301
32789.062500	-124.581711
32812.500000	-124.540237
32835.937500	-124.550278
32859.375000	-124.507645
32882.812500	-124.459984
32906.250000	-124.484344
32929.687500	-124.499405
32953.125000	-124.478546
32976.562500	-124.312500
33000.000000	-123.788490
33023.437500	-124.301727
33046.875000	-124.480209
33070.312500	-124.487686
33093.750000	-124.523422
33117.187500	-124.568527
33140.625000	-124.538666
33164.062500	-124.549072
33187.500000	-124.515984
33210.937500	-124.491982
33234.375000	-124.531357
33257.812500	-124.544220
33281.250000	-124.554863
33304.687500	-124.548477
33328.125000	-124.505302
33351.562500	-124.490936
33375.000000	-124.490059
33398.437500	-124.541359
33421.875000	-124.571266
33445.312500	-124.562172
33468.750000	-124.525139
33492.187500	-124.534142
33515.625000	-124.553215
33539.062500	-124.579758
33562.500000	-124.593491
33585.937500	-124.564178
33609.375000	-124.543114
33632.812500	-124.449219
33656.250000	-124.429329
33679.687500	-124.395195
33703.125000	-124.473206
33726.562500	-124.487396
33750.000000	-124.473473
33773.437500	-124.473724
33796.875000	-124.531693
33820.312500	-124.469429
33843.750000	-124.444809
33867.187500	-124.471237
33890.625000	-124.432823
33914.062500	-124.516945
33937.500000	-124.571564
33960.937500	-124.567413
33984.375000	-124.498520
34007.812500	-124.516289
34031.250000	-124.519150
34054.687500	-124.546486
34078.125000	-124.546143
34101.562500	-124.520157
34125.000000	-124.521324
34148.437500	-124.593300
34171.875000	-124.581207
34195.312500	-124.584854
34218.750000	-124.546989
34242.187500	-124.599854
34265.625000	-124.610771
34289.062500	-124.545708
34312.500000	-124.627670
34335.937500	-124.592285
34359.375000	-124.567337
34382.812500	-124.605415
34406.250000	-124.609581
34429.687500	-124.581833
34453.125000	-124.586693
34476.562500	-124.524628
34500.000000	-124.164185
34523.437500	-124.493919
34546.875000	-124.619583
34570.312500	-124.619843
34593.750000	-124.596619
34617.187500	-124.639542
34640.625000	-124.575340
34664.062500	-124.584312
34687.500000	-124.602882
34710.937500	-124.577126
34734.375000	-124.631203
34757.812500	-124.679955
34781.250000	-124.703804
34804.687500	-124.633255
34828.125000	-124.625374
34851.562500	-124.625069
34875.000000	-124.629494
34898.437500	-124.600342
34921.875000	-124.644135
34945.312500	-124.614540
34968.750000	-124.624435
34992.187500	-124.583084
35015.625000	-124.612144
35039.062500	-124.642166
35062.500000	-124.619499
35085.937500	-124.646858
35109.375000	-124.597275
35132.812500	-124.571564
35156.250000	-124.563789
35179.687500	-124.572540
35203.125000	-124.562210
35226.562500	-124.561462
35250.000000	-124.677757
35273.437500	-124.719193
35296.875000	-124.661209
35320.312500	-124.568275
35343.750000	-124.519928
35367.187500	-124.622681
35390.625000	-124.646751
35414.062500	-124.596550
35437.500000	-124.623917
35460.937500	-124.626732
35484.375000	-124.695099
35507.812500	-124.616806
35531.250000	-124.599365
35554.687500	-124.654381
35578.125000	-124.633202
35601.562500	-124.679634
35625.000000	-124.712883
35648.437500	-124.683640
35671.875000	-124.677925
35695.312500	-124.726669
35718.750000	-124.761406
35742.187500	-124.720306
35765.625000	-124.715240
35789.062500	-124.636581
35812.500000	-124.673904
35835.937500	-124.724030
35859.375000	-124.683632
35882.812500	-124.673805
35906.250000	-124.688347
35929.687500	-124.720123
35953.125000	-124.698677
35976.562500	-124.702805
36000.000000	-124.601044
36023.437500	-124.710274
36046.875000	-124.721397
36070.312500	-124.698341
36093.750000	-124.653671
36117.187500	-124.690361
36140.625000	-124.708748
36164.062500	-124.675827
36187.500000	-124.671989
36210.937500	-124.723839
36234.375000	-124.695686
36257.812500	-124.681313
36281.250000	-124.777206
36304.687500	-124.842789
36328.125000	-124.813133
36351.562500	-124.764603
36375.000000	-124.788582
36398.437500	-124.804321
36421.875000	-124.815178
36445.312500	-124.816780
36468.750000	-124.744202
36492.187500	-124.669670
36515.625000	-124.725014
36539.062500	-124.783287
36562.500000	-124.813736
36585.937500	-124.811089
36609.375000	-124.751663
36632.812500	-124.776978
36656.250000	-124.790848
36679.687500	-124.762978
36703.125000	-124.746216
36726.562500	-124.787613
36750.000000	-124.761909
36773.437500	-124.731339
36796.875000	-124.785057
36820.312500	-124.810272
36843.750000	-124.777725
36867.187500	-124.753288
36890.625000	-124.737083
36914.062500	-124.722115
36937.500000	-124.751518
36960.937500	-124.799149
36984.375000	-124.697807
37007.812500	-124.755524
37031.250000	-124.778862
37054.687500	-124.731384
37078.125000	-124.848625
37101.562500	-124.849907
37125.000000	-124.839073
37148.437500	-124.847153
37171.875000	-124.769943
37195.312500	-124.732933
37218.750000	-124.814850
37242.187500	-124.856529
37265.625000	-124.756386
37289.062500	-124.829788
37312.500000	-124.861244
37335.937500	-124.823723
37359.375000	-124.813148
37382.812500	-124.791458
37406.250000	-124.810860
37429.687500	-124.846458
37453.125000	-124.816765
37476.562500	-124.800652
37500.000000	-124.746910
37523.437500	-124.813614
37546.875000	-124.828796
37570.312500	-124.810028
37593.750000	-124.815041
37617.187500	-124.837006
37640.625000	-124.798141
37664.062500	-124.766403
37687.500000	-124.826744
37710.937500	-124.831947
37734.375000	-124.754669
37757.812500	-124.763634
37781.250000	-124.820183
37804.687500	-124.802567
37828.125000	-124.794334
37851.562500	-124.773125
37875.000000	-124.787819
37898.437500	-124.751717
37921.875000	-124.779312
37945.312500	-124.852409
37968.750000	-124.808105
37992.187500	-124.752327
38015.625000	-124.738495
38039.062500	-124.642426
38062.500000	-124.555138
38085.937500	-124.600204
38109.375000	-124.519783
38132.812500	-124.486214
38156.250000	-124.382301
38179.687500	-124.308670
38203.125000	-124.077942
38226.562500	-123.856209
38250.000000	-123.435150
38273.437500	-122.416016
38296.875000	-122.033928
38320.312500	-121.365860
38343.750000	-120.699165
38367.187500	-120.929039
38390.625000	-120.961731
38414.062500	-121.571907
38437.500000	-121.962105
38460.937500	-121.735428
38484.375000	-121.631439
38507.812500	-121.378021
38531.250000	-121.895485
38554.687500	-122.258141
38578.125000	-122.511398
38601.562500	-122.658989
38625.000000	-122.761894
38648.437500	-123.025116
38671.875000	-123.147224
38695.312500	-123.270126
38718.750000	-123.486038
38742.187500	-123.570221
38765.625000	-123.536301
38789.062500	-123.633049
38812.500000	-123.702919
38835.937500	-123.774673
38859.375000	-123.870026
38882.812500	-124.022820
38906.250000	-124.081337
38929.687500	-124.047371
38953.125000	-124.137955
38976.562500	-124.374405
39000.000000	-124.287399
39023.437500	-124.478401
39046.875000	-124.572388
39070.312500	-124.637535
39093.750000	-124.679672
39117.187500	-124.680862
39140.625000	-124.723236
39164.062500	-124.751183
39187.500000	-124.705048
39210.937500	-124.708771
39234.375000	-124.627380
39257.812500	-124.707062
39281.250000	-124.715668
39304.687500	-124.716797
39328.125000	-124.818909
39351.562500	-124.786644
39375.000000	-124.834557
39398.437500	-124.780647
39421.875000	-124.836006
39445.312500	-124.815720
39468.750000	-124.803139
39492.187500	-124.806206
39515.625000	-124.831451
39539.062500	-124.777740
39562.500000	-124.739716
39585.937500	-124.781326
39609.375000	-124.847374
39632.812500	-124.934784
39656.250000	-124.959122
39679.687500	-124.866470
39703.125000	-124.886223
39726.562500	-124.889328
39750.000000	-124.902679
39773.437500	-124.890442
39796.875000	-124.886063
39820.312500	-124.936218
39843.750000	-124.924217
39867.187500	-124.927528
39890.625000	-124.954048
39914.062500	-124.893295
39937.500000	-124.887054
39960.937500	-124.894287
39984.375000	-124.973190
40007.812500	-124.963409
40031.250000	-124.907661
40054.687500	-124.966080
40078.125000	-125.003647
40101.562500	-125.001495
40125.000000	-124.975563
40148.437500	-124.945564
40171.875000	-124.925774
40195.312500	-124.993767
40218.750000	-124.915459
40242.187500	-124.456108
40265.625000	-122.703529
40289.062500	-123.986328
40312.500000	-124.940346
40335.937500	-125.031334
40359.375000	-124.973892
40382.812500	-124.959091
40406.250000	-124.958221
40429.687500	-124.977684
40453.125000	-124.978355
40476.562500	-124.806480
40500.000000	-124.490952
40523.437500	-124.807236
40546.875000	-124.958969
40570.312500	-124.959419
40593.750000	-124.932426
40617.187500	-124.932182
40640.625000	-124.985924
40664.062500	-124.989487
40687.500000	-124.955170
40710.937500	-124.947525
40734.375000	-124.989861
40757.812500	-125.053375
40781.250000	-125.073044
40804.687500	-125.027550
40828.125000	-124.954697
40851.562500	-124.941605
40875.000000	-124.944962
40898.437500	-124.943916
40921.875000	-125.002678
40945.312500	-124.966187
40968.750000	-124.967575
40992.187500	-124.962120
41015.625000	-125.012413
41039.062500	-125.064949
41062.500000	-125.082275
41085.937500	-125.045616
41109.375000	-125.074394
41132.812500	-125.124847
41156.250000	-125.086678
41179.687500	-125.016121
41203.125000	-125.019142
41226.562500	-125.001045
41250.000000	-124.998573
41273.437500	-125.118584
41296.875000	-125.103149
41320.312500	-125.159981
41343.750000	-125.090752
41367.187500	-125.035988
41390.625000	-125.112625
41414.062500	-125.064705
41437.500000	-125.062134
41460.937500	-125.146645
41484.375000	-125.070717
41507.812500	-125.121140
41531.250000	-125.200302
41554.687500	-125.125114
41578.125000	-125.140297
41601.562500	-125.162735
41625.000000	-125.202881
41648.437500	-125.234627
41671.875000	-125.160881
41695.312500	-125.095604
41718.750000	-125.143555
41742.187500	-125.168938
41765.625000	-125.142807
41789.062500	-125.175690
41812.500000	-125.172974
41835.937500	-125.191963
41859.375000	-125.241768
41882.812500	-125.192268
41906.250000	-125.193733
41929.687500	-125.233810
41953.125000	-125.225609
41976.562500	-125.114487
42000.000000	-124.724518
42023.437500	-125.102585
42046.875000	-125.214119
42070.312500	-125.270409
42093.750000	-125.283638
42117.187500	-125.269325
42140.625000	-125.329254
42164.062500	-125.302834
42187.500000	-125.340584
42210.937500	-125.309250
42234.375000	-125.277893
42257.812500	-125.298820
42281.250000	-125.367912
42304.687500	-125.428169
42328.125000	-125.344460
42351.562500	-125.304329
42375.000000	-125.331421
42398.437500	-125.323578
42421.875000	-125.317772
42445.312500	-125.347588
42468.750000	-125.382294
42492.187500	-125.373421
42515.625000	-125.353508
42539.062500	-125.379898
42562.500000	-125.397141
42585.937500	-125.449608
42609.375000	-125.481201
42632.812500	-125.432838
42656.250000	-125.416611
42679.687500	-125.440407
42703.125000	-125.457771
42726.562500	-125.442741
42750.000000	-125.444489
42773.437500	-125.435562
42796.875000	-125.512833
42820.312500	-125.474464
42843.750000	-125.481949
42867.187500	-125.514732
42890.625000	-125.528267
42914.062500	-125.567886
42937.500000	-125.535629
42960.937500	-125.542686
42984.375000	-125.518021
43007.812500	-125.587624
43031.250000	-125.568275
43054.687500	-125.543564
43078.125000	-125.563263
43101.562500	-125.564995
43125.000000	-125.609619
43148.437500	-125.649361
43171.875000	-125.605949
43195.312500	-125.649010
43218.750000	-125.657867
43242.187500	-125.614014
43265.625000	-125.615303
43289.062500	-125.719238
43312.500000	-125.721878
43335.937500	-125.639725
43359.375000	-125.688026
43382.812500	-125.695976
43406.250000	-125.661049
43429.687500	-125.618370
43453.125000	-125.629929
43476.562500	-125.539711
43500.000000	-125.178978
43523.437500	-125.633202
43546.875000	-125.820778
43570.312500	-125.783127
43593.750000	-125.794228
43617.187500	-125.818596
43640.625000	-125.806892
43664.062500	-125.792267
43687.500000	-125.843079
43710.937500	-125.834892
43734.375000	-125.880829
43757.812500	-125.897087
43781.250000	-125.969788
43804.687500	-125.949203
43828.125000	-125.952217
43851.562500	-125.936974
43875.000000	-125.912804
43898.437500	-125.939026
43921.875000	-126.005814
43945.312500	-126.028000
43968.750000	-126.041489
43992.187500	-126.074524
44015.625000	-126.045876
44039.062500	-126.015060
44062.500000	-126.065262
44085.937500	-126.084648
44109.375000	-126.072868
44132.812500	-126.090355
44156.250000	-126.080849
44179.687500	-126.128922
44203.125000	-126.222473
44226.562500	-126.207024
44250.000000	-126.163322
44273.437500	-126.195023
44296.875000	-126.220482
44320.312500	-126.157852
44343.750000	-126.201210
44367.187500	-126.239876
44390.625000	-126.191956
44414.062500	-126.293007
44437.500000	-126.308998
44460.937500	-126.335785
44484.375000	-126.327934
44507.812500	-126.388611
44531.250000	-126.491737
44554.687500	-126.417885
44578.125000	-126.352692
44601.562500	-126.349159
44625.000000	-126.383820
44648.437500	-126.415375
44671.875000	-126.413300
44695.312500	-126.455193
44718.750000	-126.523994
44742.187500	-126.470757
44765.625000	-126.516243
44789.062500	-126.520828
44812.500000	-126.508865
44835.937500	-126.519859
44859.375000	-126.571442
44882.812500	-126.617279
44906.250000	-126.656822
44929.687500	-126.688385
44953.125000	-126.668579
44976.562500	-126.546173
45000.000000	-126.203796
45023.437500	-126.561745
45046.875000	-126.689163
45070.312500	-126.713921
45093.750000	-126.780861
45117.187500	-126.778770
45140.625000	-126.813118
45164.062500	-126.878029
45187.500000	-126.817963
45210.937500	-126.855812
45234.375000	-126.944527
45257.812500	-127.032021
45281.250000	-127.002625
45304.687500	-126.950798
45328.125000	-126.961418
45351.562500	-127.017128
45375.000000	-127.090294
45398.437500	-127.076637
45421.875000	-126.996513
45445.312500	-127.061714
45468.750000	-127.046227
45492.187500	-127.100830
45515.625000	-127.166740
45539.062500	-127.109169
45562.500000	-127.139076
45585.937500	-127.210770
45609.375000	-127.220490
45632.812500	-127.221237
45656.250000	-127.280846
45679.687500	-127.313683
45703.125000	-127.346092
45726.562500	-127.343636
45750.000000	-127.263268
45773.437500	-127.303429
45796.875000	-127.412575
45820.312500	-127.455627
45843.750000	-127.470772
45867.187500	-127.516296
45890.625000	-127.498314
45914.062500	-127.517532
45937.500000	-127.543976
45960.937500	-127.572021
45984.375000	-127.580429
46007.812500	-127.551140
46031.250000	-127.631508
46054.687500	-127.666656
46078.125000	-127.573006
46101.562500	-127.571426
46125.000000	-127.657997
46148.437500	-127.710823
46171.875000	-127.744286
46195.312500	-127.772896
46218.750000	-127.848602
46242.187500	-127.818825
46265.625000	-127.764534
46289.062500	-127.807121
46312.500000	-127.852264
46335.937500	-127.859924
46359.375000	-127.888435
46382.812500	-127.950348
46406.250000	-127.935188
46429.687500	-127.916191
46453.125000	-127.973152
46476.562500	-127.868126
46500.000000	-127.669960
46523.437500	-127.900993
46546.875000	-128.063232
46570.312500	-128.049484
46593.750000	-128.054733
46617.187500	-128.044464
46640.625000	-128.047775
46664.062500	-128.075775
46687.500000	-128.139328
46710.937500	-128.162857
46734.375000	-128.159424
46757.812500	-128.184433
46781.250000	-128.217728
46804.687500	-128.220856
46828.125000	-128.229446
46851.562500	-128.213562
46875.000000	-128.261322
46898.437500	-128.335907
46921.875000	-128.272263
46945.312500	-128.243729
46968.750000	-128.240158
46992.187500	-128.277283
47015.625000	-128.366348
47039.062500	-128.378967
47062.500000	-128.381851
47085.937500	-128.341263
47109.375000	-128.316284
47132.812500	-128.407562
47156.250000	-128.424530
47179.687500	-128.448395
47203.125000	-128.428970
47226.562500	-128.476807
47250.000000	-128.499313
47273.437500	-128.450500
47296.875000	-128.475815
47320.312500	-128.491394
47343.750000	-128.494171
47367.187500	-128.518082
47390.625000	-128.495422
47414.062500	-128.479996
47437.500000	-128.480545
47460.937500	-128.570938
47484.375000	-128.636658
47507.812500	-128.619263
47531.250000	-128.587540
47554.687500	-128.580612
47578.125000	-128.548737
47601.562500	-128.583588
47625.000000	-128.647659
47648.437500	-128.641556
47671.875000	-128.585663
47695.312500	-128.605850
47718.750000	-128.576965
47742.187500	-128.602890
47765.625000	-128.669785
47789.062500	-128.672714
47812.500000	-128.618637
47835.937500	-128.673019
47859.375000	-128.665298
47882.812500	-128.643478
47906.250000	-128.669739
47929.687500	-128.630020
47953.125000	-128.657150
47976.562500	-128.592529
